# BinNR microsec tot-time (s)  O-Beam AUX Ampl(V) f(Hz) phase(deg) chi(pos)
0 0.00 1200.04 73 238 1.340 10000.000 0.000 0.835
1 3.00 1200.04 153 450 1.340 10000.000 0.000 0.835
2 6.00 1200.04 176 529 1.340 10000.000 0.000 0.835
3 9.00 1200.04 146 551 1.340 10000.000 0.000 0.835
4 12.00 1200.04 178 546 1.340 10000.000 0.000 0.835
5 15.00 1200.04 217 659 1.340 10000.000 0.000 0.835
6 18.00 1200.04 211 708 1.340 10000.000 0.000 0.835
7 21.00 1200.04 202 755 1.340 10000.000 0.000 0.835
8 24.00 1200.04 223 761 1.340 10000.000 0.000 0.835
9 27.00 1200.04 214 854 1.340 10000.000 0.000 0.835
10 30.00 1200.04 234 828 1.340 10000.000 0.000 0.835
11 33.00 1200.04 257 811 1.340 10000.000 0.000 0.835
12 36.00 1200.04 242 847 1.340 10000.000 0.000 0.835
13 39.00 1200.04 250 798 1.340 10000.000 0.000 0.835
14 42.00 1200.04 275 877 1.340 10000.000 0.000 0.835
15 45.00 1200.04 267 838 1.340 10000.000 0.000 0.835
16 48.00 1200.04 253 836 1.340 10000.000 0.000 0.835
17 51.00 1200.04 243 820 1.340 10000.000 0.000 0.835
18 54.00 1200.04 234 853 1.340 10000.000 0.000 0.835
19 57.00 1200.04 221 780 1.340 10000.000 0.000 0.835
20 60.00 1200.04 241 800 1.340 10000.000 0.000 0.835
21 63.00 1200.04 215 771 1.340 10000.000 0.000 0.835
22 66.00 1200.04 186 801 1.340 10000.000 0.000 0.835
23 69.00 1200.04 177 681 1.340 10000.000 0.000 0.835
24 72.00 1200.04 183 641 1.340 10000.000 0.000 0.835
25 75.00 1200.04 160 622 1.340 10000.000 0.000 0.835
26 78.00 1200.04 156 571 1.340 10000.000 0.000 0.835
27 81.00 1200.04 156 511 1.340 10000.000 0.000 0.835
28 84.00 1200.04 147 472 1.340 10000.000 0.000 0.835
29 87.00 1200.04 159 436 1.340 10000.000 0.000 0.835
30 90.00 1200.04 129 447 1.340 10000.000 0.000 0.835
31 93.00 1200.04 126 428 1.340 10000.000 0.000 0.835
32 96.00 1200.04 134 443 1.340 10000.000 0.000 0.835
33 99.00 1200.04 130 441 1.340 10000.000 0.000 0.835
34 102.00 1200.04 142 492 1.340 10000.000 0.000 0.835
35 105.00 1200.04 156 530 1.340 10000.000 0.000 0.835
36 108.00 1200.04 201 491 1.340 10000.000 0.000 0.835
37 111.00 1200.04 163 528 1.340 10000.000 0.000 0.835
38 114.00 1200.04 180 584 1.340 10000.000 0.000 0.835
39 117.00 1200.04 202 619 1.340 10000.000 0.000 0.835
40 120.00 1200.04 201 727 1.340 10000.000 0.000 0.835
41 123.00 1200.04 224 654 1.340 10000.000 0.000 0.835
42 126.00 1200.04 238 762 1.340 10000.000 0.000 0.835
43 129.00 1200.04 226 767 1.340 10000.000 0.000 0.835
44 132.00 1200.04 221 826 1.340 10000.000 0.000 0.835
45 135.00 1200.04 250 864 1.340 10000.000 0.000 0.835
46 138.00 1200.04 261 890 1.340 10000.000 0.000 0.835
47 141.00 1200.04 273 876 1.340 10000.000 0.000 0.835
48 144.00 1200.04 272 889 1.340 10000.000 0.000 0.835
49 147.00 1200.04 284 860 1.340 10000.000 0.000 0.835
50 150.00 1200.04 255 933 1.340 10000.000 0.000 0.835
51 153.00 1200.04 221 873 1.340 10000.000 0.000 0.835
52 156.00 1200.04 276 835 1.340 10000.000 0.000 0.835
53 159.00 1200.04 226 784 1.340 10000.000 0.000 0.835
54 162.00 1200.04 200 814 1.340 10000.000 0.000 0.835
55 165.00 1200.04 219 727 1.340 10000.000 0.000 0.835
56 168.00 1200.04 174 699 1.340 10000.000 0.000 0.835
57 171.00 1200.04 187 660 1.340 10000.000 0.000 0.835
58 174.00 1200.04 163 595 1.340 10000.000 0.000 0.835
59 177.00 1200.04 171 547 1.340 10000.000 0.000 0.835
60 180.00 1200.04 171 541 1.340 10000.000 0.000 0.835
61 183.00 1200.04 147 487 1.340 10000.000 0.000 0.835
62 186.00 1200.04 163 482 1.340 10000.000 0.000 0.835
63 189.00 1200.04 136 489 1.340 10000.000 0.000 0.835
64 192.00 1200.04 157 475 1.340 10000.000 0.000 0.835
65 195.00 1200.04 136 472 1.340 10000.000 0.000 0.835
66 198.00 1200.04 138 512 1.340 10000.000 0.000 0.835
67 201.00 1200.04 154 471 1.340 10000.000 0.000 0.835
68 204.00 1200.04 175 448 1.340 10000.000 0.000 0.835
69 207.00 1200.04 153 503 1.340 10000.000 0.000 0.835
70 210.00 1200.04 167 517 1.340 10000.000 0.000 0.835
71 213.00 1200.04 178 634 1.340 10000.000 0.000 0.835
72 216.00 1200.04 217 649 1.340 10000.000 0.000 0.835
73 219.00 1200.04 222 639 1.340 10000.000 0.000 0.835
74 222.00 1200.04 212 744 1.340 10000.000 0.000 0.835
75 225.00 1200.04 237 698 1.340 10000.000 0.000 0.835
76 228.00 1200.04 262 808 1.340 10000.000 0.000 0.835
77 231.00 1200.04 229 800 1.340 10000.000 0.000 0.835
78 234.00 1200.04 271 883 1.340 10000.000 0.000 0.835
79 237.00 1200.04 292 865 1.340 10000.000 0.000 0.835
80 240.00 1200.04 239 870 1.340 10000.000 0.000 0.835
81 243.00 1200.04 262 849 1.340 10000.000 0.000 0.835
82 246.00 1200.04 267 872 1.340 10000.000 0.000 0.835
83 249.00 1200.04 269 860 1.340 10000.000 0.000 0.835
84 252.00 1200.04 250 870 1.340 10000.000 0.000 0.835
85 255.00 1200.04 236 799 1.340 10000.000 0.000 0.835
86 258.00 1200.04 240 838 1.340 10000.000 0.000 0.835
87 261.00 1200.04 235 765 1.340 10000.000 0.000 0.835
88 264.00 1200.04 211 739 1.340 10000.000 0.000 0.835
89 267.00 1200.04 206 708 1.340 10000.000 0.000 0.835
90 270.00 1200.04 196 718 1.340 10000.000 0.000 0.835
91 273.00 1200.04 175 643 1.340 10000.000 0.000 0.835
92 276.00 1200.04 163 603 1.340 10000.000 0.000 0.835
93 279.00 1200.04 164 559 1.340 10000.000 0.000 0.835
94 282.00 1200.04 151 540 1.340 10000.000 0.000 0.835
95 285.00 1200.04 146 448 1.340 10000.000 0.000 0.835
96 288.00 1200.04 151 471 1.340 10000.000 0.000 0.835
97 291.00 1200.04 139 456 1.340 10000.000 0.000 0.835
98 294.00 1200.04 132 438 1.340 10000.000 0.000 0.835
99 297.00 1200.04 128 448 1.340 10000.000 0.000 0.835
100 300.00 1200.04 157 445 1.340 10000.000 0.000 0.835
101 303.00 1200.04 143 501 1.340 10000.000 0.000 0.835
102 306.00 1200.04 154 527 1.340 10000.000 0.000 0.835
103 309.00 1200.04 171 487 1.340 10000.000 0.000 0.835
104 312.00 1200.04 200 537 1.340 10000.000 0.000 0.835
105 315.00 1200.04 184 569 1.340 10000.000 0.000 0.835
106 318.00 1200.04 219 710 1.340 10000.000 0.000 0.835
107 321.00 1200.04 221 733 1.340 10000.000 0.000 0.835
108 324.00 1200.04 233 762 1.340 10000.000 0.000 0.835
109 327.00 1200.04 244 739 1.340 10000.000 0.000 0.835
110 330.00 1200.04 270 773 1.340 10000.000 0.000 0.835
111 333.00 1200.04 250 903 1.340 10000.000 0.000 0.835
112 336.00 1200.04 235 887 1.340 10000.000 0.000 0.835
113 339.00 1200.04 252 857 1.340 10000.000 0.000 0.835
114 342.00 1200.04 244 897 1.340 10000.000 0.000 0.835
115 345.00 1200.04 267 869 1.340 10000.000 0.000 0.835
116 348.00 1200.04 267 840 1.340 10000.000 0.000 0.835
117 351.00 1200.04 239 838 1.340 10000.000 0.000 0.835
118 354.00 1200.04 250 864 1.340 10000.000 0.000 0.835
119 357.00 1200.04 241 784 1.340 10000.000 0.000 0.835
120 360.00 1200.04 230 792 1.340 10000.000 0.000 0.835
121 363.00 1200.04 223 759 1.340 10000.000 0.000 0.835
122 366.00 1200.04 229 755 1.340 10000.000 0.000 0.835
123 369.00 1200.04 223 693 1.340 10000.000 0.000 0.835
124 372.00 1200.04 193 691 1.340 10000.000 0.000 0.835
125 375.00 1200.04 171 600 1.340 10000.000 0.000 0.835
126 378.00 1200.04 189 501 1.340 10000.000 0.000 0.835
127 381.00 1200.04 163 502 1.340 10000.000 0.000 0.835
128 384.00 1200.04 160 533 1.340 10000.000 0.000 0.835
129 387.00 1200.04 145 465 1.340 10000.000 0.000 0.835
130 390.00 1200.04 158 462 1.340 10000.000 0.000 0.835
131 393.00 1200.04 149 466 1.340 10000.000 0.000 0.835
132 396.00 1200.04 148 460 1.340 10000.000 0.000 0.835
133 399.00 1200.04 144 431 1.340 10000.000 0.000 0.835
134 402.00 1200.04 147 462 1.340 10000.000 0.000 0.835
