# BinNR microsec tot-time (s)  O-Beam AUX Ampl(V) f(Hz) phase(deg) chi(pos)
0 0.00 1200.02 124 177 1.340 10000.000 0.000 -0.011
1 3.00 1200.02 218 348 1.340 10000.000 0.000 -0.011
2 6.00 1200.02 209 363 1.340 10000.000 0.000 -0.011
3 9.00 1200.02 194 319 1.340 10000.000 0.000 -0.011
4 12.00 1200.02 162 298 1.340 10000.000 0.000 -0.011
5 15.00 1200.02 180 221 1.340 10000.000 0.000 -0.011
6 18.00 1200.02 153 215 1.340 10000.000 0.000 -0.011
7 21.00 1200.02 156 197 1.340 10000.000 0.000 -0.011
8 24.00 1200.02 152 179 1.340 10000.000 0.000 -0.011
9 27.00 1200.02 146 167 1.340 10000.000 0.000 -0.011
10 30.00 1200.02 123 158 1.340 10000.000 0.000 -0.011
11 33.00 1200.02 108 168 1.340 10000.000 0.000 -0.011
12 36.00 1200.02 129 143 1.340 10000.000 0.000 -0.011
13 39.00 1200.02 106 135 1.340 10000.000 0.000 -0.011
14 42.00 1200.02 131 141 1.340 10000.000 0.000 -0.011
15 45.00 1200.02 109 137 1.340 10000.000 0.000 -0.011
16 48.00 1200.02 118 149 1.340 10000.000 0.000 -0.011
17 51.00 1200.02 109 143 1.340 10000.000 0.000 -0.011
18 54.00 1200.02 115 158 1.340 10000.000 0.000 -0.011
19 57.00 1200.02 123 151 1.340 10000.000 0.000 -0.011
20 60.00 1200.02 146 170 1.340 10000.000 0.000 -0.011
21 63.00 1200.02 154 194 1.340 10000.000 0.000 -0.011
22 66.00 1200.02 155 215 1.340 10000.000 0.000 -0.011
23 69.00 1200.02 152 244 1.340 10000.000 0.000 -0.011
24 72.00 1200.02 195 290 1.340 10000.000 0.000 -0.011
25 75.00 1200.02 193 298 1.340 10000.000 0.000 -0.011
26 78.00 1200.02 200 333 1.340 10000.000 0.000 -0.011
27 81.00 1200.02 201 358 1.340 10000.000 0.000 -0.011
28 84.00 1200.02 228 392 1.340 10000.000 0.000 -0.011
29 87.00 1200.02 211 385 1.340 10000.000 0.000 -0.011
30 90.00 1200.02 202 400 1.340 10000.000 0.000 -0.011
31 93.00 1200.02 237 472 1.340 10000.000 0.000 -0.011
32 96.00 1200.02 241 478 1.340 10000.000 0.000 -0.011
33 99.00 1200.02 217 464 1.340 10000.000 0.000 -0.011
34 102.00 1200.02 226 450 1.340 10000.000 0.000 -0.011
35 105.00 1200.02 205 413 1.340 10000.000 0.000 -0.011
36 108.00 1200.02 179 380 1.340 10000.000 0.000 -0.011
37 111.00 1200.02 206 303 1.340 10000.000 0.000 -0.011
38 114.00 1200.02 202 310 1.340 10000.000 0.000 -0.011
39 117.00 1200.02 134 292 1.340 10000.000 0.000 -0.011
40 120.00 1200.02 150 242 1.340 10000.000 0.000 -0.011
41 123.00 1200.02 137 212 1.340 10000.000 0.000 -0.011
42 126.00 1200.02 126 198 1.340 10000.000 0.000 -0.011
43 129.00 1200.02 130 165 1.340 10000.000 0.000 -0.011
44 132.00 1200.02 130 156 1.340 10000.000 0.000 -0.011
45 135.00 1200.02 112 133 1.340 10000.000 0.000 -0.011
46 138.00 1200.02 135 129 1.340 10000.000 0.000 -0.011
47 141.00 1200.02 116 112 1.340 10000.000 0.000 -0.011
48 144.00 1200.02 109 128 1.340 10000.000 0.000 -0.011
49 147.00 1200.02 112 125 1.340 10000.000 0.000 -0.011
50 150.00 1200.02 90 131 1.340 10000.000 0.000 -0.011
51 153.00 1200.02 121 139 1.340 10000.000 0.000 -0.011
52 156.00 1200.02 133 168 1.340 10000.000 0.000 -0.011
53 159.00 1200.02 134 153 1.340 10000.000 0.000 -0.011
54 162.00 1200.02 145 183 1.340 10000.000 0.000 -0.011
55 165.00 1200.02 172 196 1.340 10000.000 0.000 -0.011
56 168.00 1200.02 148 230 1.340 10000.000 0.000 -0.011
57 171.00 1200.02 183 240 1.340 10000.000 0.000 -0.011
58 174.00 1200.02 173 288 1.340 10000.000 0.000 -0.011
59 177.00 1200.02 199 341 1.340 10000.000 0.000 -0.011
60 180.00 1200.02 226 355 1.340 10000.000 0.000 -0.011
61 183.00 1200.02 222 379 1.340 10000.000 0.000 -0.011
62 186.00 1200.02 234 427 1.340 10000.000 0.000 -0.011
63 189.00 1200.02 228 452 1.340 10000.000 0.000 -0.011
64 192.00 1200.02 232 454 1.340 10000.000 0.000 -0.011
65 195.00 1200.02 234 451 1.340 10000.000 0.000 -0.011
66 198.00 1200.02 246 448 1.340 10000.000 0.000 -0.011
67 201.00 1200.02 211 435 1.340 10000.000 0.000 -0.011
68 204.00 1200.02 198 391 1.340 10000.000 0.000 -0.011
69 207.00 1200.02 205 409 1.340 10000.000 0.000 -0.011
70 210.00 1200.02 172 374 1.340 10000.000 0.000 -0.011
71 213.00 1200.02 205 308 1.340 10000.000 0.000 -0.011
72 216.00 1200.02 159 296 1.340 10000.000 0.000 -0.011
73 219.00 1200.02 161 271 1.340 10000.000 0.000 -0.011
74 222.00 1200.02 142 249 1.340 10000.000 0.000 -0.011
75 225.00 1200.02 125 198 1.340 10000.000 0.000 -0.011
76 228.00 1200.02 115 163 1.340 10000.000 0.000 -0.011
77 231.00 1200.02 118 185 1.340 10000.000 0.000 -0.011
78 234.00 1200.02 121 119 1.340 10000.000 0.000 -0.011
79 237.00 1200.02 112 130 1.340 10000.000 0.000 -0.011
80 240.00 1200.02 124 141 1.340 10000.000 0.000 -0.011
81 243.00 1200.02 105 121 1.340 10000.000 0.000 -0.011
82 246.00 1200.02 136 124 1.340 10000.000 0.000 -0.011
83 249.00 1200.02 128 155 1.340 10000.000 0.000 -0.011
84 252.00 1200.02 124 115 1.340 10000.000 0.000 -0.011
85 255.00 1200.02 132 152 1.340 10000.000 0.000 -0.011
86 258.00 1200.02 152 145 1.340 10000.000 0.000 -0.011
87 261.00 1200.02 123 155 1.340 10000.000 0.000 -0.011
88 264.00 1200.02 155 199 1.340 10000.000 0.000 -0.011
89 267.00 1200.02 165 227 1.340 10000.000 0.000 -0.011
90 270.00 1200.02 162 276 1.340 10000.000 0.000 -0.011
91 273.00 1200.02 173 296 1.340 10000.000 0.000 -0.011
92 276.00 1200.02 170 288 1.340 10000.000 0.000 -0.011
93 279.00 1200.02 213 369 1.340 10000.000 0.000 -0.011
94 282.00 1200.02 226 386 1.340 10000.000 0.000 -0.011
95 285.00 1200.02 221 423 1.340 10000.000 0.000 -0.011
96 288.00 1200.02 200 455 1.340 10000.000 0.000 -0.011
97 291.00 1200.02 224 484 1.340 10000.000 0.000 -0.011
98 294.00 1200.02 210 465 1.340 10000.000 0.000 -0.011
99 297.00 1200.02 245 434 1.340 10000.000 0.000 -0.011
100 300.00 1200.02 202 454 1.340 10000.000 0.000 -0.011
101 303.00 1200.02 222 448 1.340 10000.000 0.000 -0.011
102 306.00 1200.02 173 401 1.340 10000.000 0.000 -0.011
103 309.00 1200.02 195 371 1.340 10000.000 0.000 -0.011
104 312.00 1200.02 188 356 1.340 10000.000 0.000 -0.011
105 315.00 1200.02 171 317 1.340 10000.000 0.000 -0.011
106 318.00 1200.02 183 284 1.340 10000.000 0.000 -0.011
107 321.00 1200.02 153 231 1.340 10000.000 0.000 -0.011
108 324.00 1200.02 157 220 1.340 10000.000 0.000 -0.011
109 327.00 1200.02 123 188 1.340 10000.000 0.000 -0.011
110 330.00 1200.02 125 162 1.340 10000.000 0.000 -0.011
111 333.00 1200.02 137 163 1.340 10000.000 0.000 -0.011
112 336.00 1200.02 118 140 1.340 10000.000 0.000 -0.011
113 339.00 1200.02 108 142 1.340 10000.000 0.000 -0.011
114 342.00 1200.02 116 126 1.340 10000.000 0.000 -0.011
115 345.00 1200.02 114 141 1.340 10000.000 0.000 -0.011
116 348.00 1200.02 125 110 1.340 10000.000 0.000 -0.011
117 351.00 1200.02 131 132 1.340 10000.000 0.000 -0.011
118 354.00 1200.02 117 162 1.340 10000.000 0.000 -0.011
119 357.00 1200.02 118 148 1.340 10000.000 0.000 -0.011
120 360.00 1200.02 137 187 1.340 10000.000 0.000 -0.011
121 363.00 1200.02 148 170 1.340 10000.000 0.000 -0.011
122 366.00 1200.02 172 220 1.340 10000.000 0.000 -0.011
123 369.00 1200.02 153 233 1.340 10000.000 0.000 -0.011
124 372.00 1200.02 162 292 1.340 10000.000 0.000 -0.011
125 375.00 1200.02 170 307 1.340 10000.000 0.000 -0.011
126 378.00 1200.02 172 356 1.340 10000.000 0.000 -0.011
127 381.00 1200.02 195 355 1.340 10000.000 0.000 -0.011
128 384.00 1200.02 198 383 1.340 10000.000 0.000 -0.011
129 387.00 1200.02 205 417 1.340 10000.000 0.000 -0.011
130 390.00 1200.02 225 426 1.340 10000.000 0.000 -0.011
131 393.00 1200.02 218 473 1.340 10000.000 0.000 -0.011
132 396.00 1200.02 214 453 1.340 10000.000 0.000 -0.011
133 399.00 1200.02 213 422 1.340 10000.000 0.000 -0.011
134 402.00 1200.02 229 417 1.340 10000.000 0.000 -0.011
