# BinNR microsec tot-time (s)  O-Beam AUX Ampl(V) f(Hz) phase(deg) chi(pos)
0 0.00 1200.00 47 60 1.340 10000.000 0.000 0.319
1 3.00 1200.00 85 105 1.340 10000.000 0.000 0.319
2 6.00 1200.00 105 102 1.340 10000.000 0.000 0.319
3 9.00 1200.00 65 104 1.340 10000.000 0.000 0.319
4 12.00 1200.00 93 99 1.340 10000.000 0.000 0.319
5 15.00 1200.00 69 89 1.340 10000.000 0.000 0.319
6 18.00 1200.00 81 127 1.340 10000.000 0.000 0.319
7 21.00 1200.00 82 111 1.340 10000.000 0.000 0.319
8 24.00 1200.00 72 142 1.340 10000.000 0.000 0.319
9 27.00 1200.00 56 140 1.340 10000.000 0.000 0.319
10 30.00 1200.00 71 163 1.340 10000.000 0.000 0.319
11 33.00 1200.00 69 159 1.340 10000.000 0.000 0.319
12 36.00 1200.00 86 164 1.340 10000.000 0.000 0.319
13 39.00 1200.00 76 182 1.340 10000.000 0.000 0.319
14 42.00 1200.00 73 160 1.340 10000.000 0.000 0.319
15 45.00 1200.00 92 170 1.340 10000.000 0.000 0.319
16 48.00 1200.00 74 176 1.340 10000.000 0.000 0.319
17 51.00 1200.00 70 152 1.340 10000.000 0.000 0.319
18 54.00 1200.00 72 144 1.340 10000.000 0.000 0.319
19 57.00 1200.00 71 151 1.340 10000.000 0.000 0.319
20 60.00 1200.00 59 170 1.340 10000.000 0.000 0.319
21 63.00 1200.00 75 119 1.340 10000.000 0.000 0.319
22 66.00 1200.00 75 124 1.340 10000.000 0.000 0.319
23 69.00 1200.00 69 99 1.340 10000.000 0.000 0.319
24 72.00 1200.00 75 101 1.340 10000.000 0.000 0.319
25 75.00 1200.00 71 106 1.340 10000.000 0.000 0.319
26 78.00 1200.00 93 111 1.340 10000.000 0.000 0.319
27 81.00 1200.00 91 97 1.340 10000.000 0.000 0.319
28 84.00 1200.00 85 100 1.340 10000.000 0.000 0.319
29 87.00 1200.00 105 93 1.340 10000.000 0.000 0.319
30 90.00 1200.00 103 103 1.340 10000.000 0.000 0.319
31 93.00 1200.00 121 114 1.340 10000.000 0.000 0.319
32 96.00 1200.00 104 140 1.340 10000.000 0.000 0.319
33 99.00 1200.00 94 104 1.340 10000.000 0.000 0.319
34 102.00 1200.00 81 119 1.340 10000.000 0.000 0.319
35 105.00 1200.00 87 93 1.340 10000.000 0.000 0.319
36 108.00 1200.00 88 105 1.340 10000.000 0.000 0.319
37 111.00 1200.00 71 113 1.340 10000.000 0.000 0.319
38 114.00 1200.00 73 104 1.340 10000.000 0.000 0.319
39 117.00 1200.00 82 90 1.340 10000.000 0.000 0.319
40 120.00 1200.00 69 111 1.340 10000.000 0.000 0.319
41 123.00 1200.00 80 121 1.340 10000.000 0.000 0.319
42 126.00 1200.00 96 118 1.340 10000.000 0.000 0.319
43 129.00 1200.00 73 153 1.340 10000.000 0.000 0.319
44 132.00 1200.00 62 155 1.340 10000.000 0.000 0.319
45 135.00 1200.00 81 162 1.340 10000.000 0.000 0.319
46 138.00 1200.00 90 210 1.340 10000.000 0.000 0.319
47 141.00 1200.00 87 183 1.340 10000.000 0.000 0.319
48 144.00 1200.00 81 165 1.340 10000.000 0.000 0.319
49 147.00 1200.00 83 162 1.340 10000.000 0.000 0.319
50 150.00 1200.00 81 186 1.340 10000.000 0.000 0.319
51 153.00 1200.00 76 179 1.340 10000.000 0.000 0.319
52 156.00 1200.00 74 167 1.340 10000.000 0.000 0.319
53 159.00 1200.00 81 154 1.340 10000.000 0.000 0.319
54 162.00 1200.00 67 137 1.340 10000.000 0.000 0.319
55 165.00 1200.00 72 113 1.340 10000.000 0.000 0.319
56 168.00 1200.00 76 110 1.340 10000.000 0.000 0.319
57 171.00 1200.00 83 96 1.340 10000.000 0.000 0.319
58 174.00 1200.00 77 88 1.340 10000.000 0.000 0.319
59 177.00 1200.00 79 101 1.340 10000.000 0.000 0.319
60 180.00 1200.00 103 92 1.340 10000.000 0.000 0.319
61 183.00 1200.00 102 101 1.340 10000.000 0.000 0.319
62 186.00 1200.00 101 106 1.340 10000.000 0.000 0.319
63 189.00 1200.00 89 108 1.340 10000.000 0.000 0.319
64 192.00 1200.00 77 105 1.340 10000.000 0.000 0.319
65 195.00 1200.00 84 131 1.340 10000.000 0.000 0.319
66 198.00 1200.00 114 112 1.340 10000.000 0.000 0.319
67 201.00 1200.00 90 117 1.340 10000.000 0.000 0.319
68 204.00 1200.00 91 102 1.340 10000.000 0.000 0.319
69 207.00 1200.00 110 96 1.340 10000.000 0.000 0.319
70 210.00 1200.00 85 107 1.340 10000.000 0.000 0.319
71 213.00 1200.00 90 98 1.340 10000.000 0.000 0.319
72 216.00 1200.00 85 88 1.340 10000.000 0.000 0.319
73 219.00 1200.00 79 95 1.340 10000.000 0.000 0.319
74 222.00 1200.00 64 111 1.340 10000.000 0.000 0.319
75 225.00 1200.00 95 145 1.340 10000.000 0.000 0.319
76 228.00 1200.00 71 131 1.340 10000.000 0.000 0.319
77 231.00 1200.00 60 153 1.340 10000.000 0.000 0.319
78 234.00 1200.00 81 173 1.340 10000.000 0.000 0.319
79 237.00 1200.00 92 195 1.340 10000.000 0.000 0.319
80 240.00 1200.00 66 178 1.340 10000.000 0.000 0.319
81 243.00 1200.00 80 208 1.340 10000.000 0.000 0.319
82 246.00 1200.00 85 208 1.340 10000.000 0.000 0.319
83 249.00 1200.00 57 201 1.340 10000.000 0.000 0.319
84 252.00 1200.00 69 204 1.340 10000.000 0.000 0.319
85 255.00 1200.00 87 162 1.340 10000.000 0.000 0.319
86 258.00 1200.00 75 155 1.340 10000.000 0.000 0.319
87 261.00 1200.00 78 153 1.340 10000.000 0.000 0.319
88 264.00 1200.00 79 127 1.340 10000.000 0.000 0.319
89 267.00 1200.00 86 115 1.340 10000.000 0.000 0.319
90 270.00 1200.00 77 100 1.340 10000.000 0.000 0.319
91 273.00 1200.00 78 85 1.340 10000.000 0.000 0.319
92 276.00 1200.00 95 87 1.340 10000.000 0.000 0.319
93 279.00 1200.00 81 89 1.340 10000.000 0.000 0.319
94 282.00 1200.00 91 111 1.340 10000.000 0.000 0.319
95 285.00 1200.00 99 103 1.340 10000.000 0.000 0.319
96 288.00 1200.00 83 109 1.340 10000.000 0.000 0.319
97 291.00 1200.00 91 129 1.340 10000.000 0.000 0.319
98 294.00 1200.00 111 116 1.340 10000.000 0.000 0.319
99 297.00 1200.00 89 127 1.340 10000.000 0.000 0.319
100 300.00 1200.00 94 114 1.340 10000.000 0.000 0.319
101 303.00 1200.00 81 88 1.340 10000.000 0.000 0.319
102 306.00 1200.00 91 105 1.340 10000.000 0.000 0.319
103 309.00 1200.00 66 105 1.340 10000.000 0.000 0.319
104 312.00 1200.00 86 92 1.340 10000.000 0.000 0.319
105 315.00 1200.00 74 87 1.340 10000.000 0.000 0.319
106 318.00 1200.00 86 110 1.340 10000.000 0.000 0.319
107 321.00 1200.00 95 114 1.340 10000.000 0.000 0.319
108 324.00 1200.00 85 119 1.340 10000.000 0.000 0.319
109 327.00 1200.00 67 134 1.340 10000.000 0.000 0.319
110 330.00 1200.00 72 142 1.340 10000.000 0.000 0.319
111 333.00 1200.00 78 171 1.340 10000.000 0.000 0.319
112 336.00 1200.00 79 173 1.340 10000.000 0.000 0.319
113 339.00 1200.00 58 188 1.340 10000.000 0.000 0.319
114 342.00 1200.00 83 204 1.340 10000.000 0.000 0.319
115 345.00 1200.00 74 227 1.340 10000.000 0.000 0.319
116 348.00 1200.00 74 203 1.340 10000.000 0.000 0.319
117 351.00 1200.00 72 211 1.340 10000.000 0.000 0.319
118 354.00 1200.00 66 178 1.340 10000.000 0.000 0.319
119 357.00 1200.00 76 170 1.340 10000.000 0.000 0.319
120 360.00 1200.00 58 164 1.340 10000.000 0.000 0.319
121 363.00 1200.00 79 138 1.340 10000.000 0.000 0.319
122 366.00 1200.00 62 129 1.340 10000.000 0.000 0.319
123 369.00 1200.00 75 106 1.340 10000.000 0.000 0.319
124 372.00 1200.00 77 93 1.340 10000.000 0.000 0.319
125 375.00 1200.00 59 100 1.340 10000.000 0.000 0.319
126 378.00 1200.00 81 100 1.340 10000.000 0.000 0.319
127 381.00 1200.00 82 113 1.340 10000.000 0.000 0.319
128 384.00 1200.00 85 93 1.340 10000.000 0.000 0.319
129 387.00 1200.00 82 123 1.340 10000.000 0.000 0.319
130 390.00 1200.00 94 128 1.340 10000.000 0.000 0.319
131 393.00 1200.00 79 127 1.340 10000.000 0.000 0.319
132 396.00 1200.00 84 104 1.340 10000.000 0.000 0.319
133 399.00 1200.00 95 121 1.340 10000.000 0.000 0.319
134 402.00 1200.00 89 115 1.340 10000.000 0.000 0.319
