# BinNR microsec tot-time (s)  O-Beam AUX Ampl(V) f(Hz) phase(deg) chi(pos)
0 0.00 1200.03 40 59 1.340 10000.000 0.000 -1.505
1 3.00 1200.03 74 129 1.340 10000.000 0.000 -1.505
2 6.00 1200.03 69 136 1.340 10000.000 0.000 -1.505
3 9.00 1200.03 83 161 1.340 10000.000 0.000 -1.505
4 12.00 1200.03 78 192 1.340 10000.000 0.000 -1.505
5 15.00 1200.03 95 171 1.340 10000.000 0.000 -1.505
6 18.00 1200.03 83 240 1.340 10000.000 0.000 -1.505
7 21.00 1200.03 105 254 1.340 10000.000 0.000 -1.505
8 24.00 1200.03 98 302 1.340 10000.000 0.000 -1.505
9 27.00 1200.03 114 294 1.340 10000.000 0.000 -1.505
10 30.00 1200.03 118 384 1.340 10000.000 0.000 -1.505
11 33.00 1200.03 105 381 1.340 10000.000 0.000 -1.505
12 36.00 1200.03 127 398 1.340 10000.000 0.000 -1.505
13 39.00 1200.03 104 353 1.340 10000.000 0.000 -1.505
14 42.00 1200.03 99 375 1.340 10000.000 0.000 -1.505
15 45.00 1200.03 99 373 1.340 10000.000 0.000 -1.505
16 48.00 1200.03 111 309 1.340 10000.000 0.000 -1.505
17 51.00 1200.03 104 342 1.340 10000.000 0.000 -1.505
18 54.00 1200.03 97 320 1.340 10000.000 0.000 -1.505
19 57.00 1200.03 74 297 1.340 10000.000 0.000 -1.505
20 60.00 1200.03 65 322 1.340 10000.000 0.000 -1.505
21 63.00 1200.03 83 265 1.340 10000.000 0.000 -1.505
22 66.00 1200.03 75 247 1.340 10000.000 0.000 -1.505
23 69.00 1200.03 92 210 1.340 10000.000 0.000 -1.505
24 72.00 1200.03 98 204 1.340 10000.000 0.000 -1.505
25 75.00 1200.03 57 163 1.340 10000.000 0.000 -1.505
26 78.00 1200.03 77 156 1.340 10000.000 0.000 -1.505
27 81.00 1200.03 65 107 1.340 10000.000 0.000 -1.505
28 84.00 1200.03 80 137 1.340 10000.000 0.000 -1.505
29 87.00 1200.03 58 89 1.340 10000.000 0.000 -1.505
30 90.00 1200.03 66 114 1.340 10000.000 0.000 -1.505
31 93.00 1200.03 67 109 1.340 10000.000 0.000 -1.505
32 96.00 1200.03 77 130 1.340 10000.000 0.000 -1.505
33 99.00 1200.03 67 89 1.340 10000.000 0.000 -1.505
34 102.00 1200.03 72 121 1.340 10000.000 0.000 -1.505
35 105.00 1200.03 58 129 1.340 10000.000 0.000 -1.505
36 108.00 1200.03 80 129 1.340 10000.000 0.000 -1.505
37 111.00 1200.03 75 148 1.340 10000.000 0.000 -1.505
38 114.00 1200.03 83 184 1.340 10000.000 0.000 -1.505
39 117.00 1200.03 85 184 1.340 10000.000 0.000 -1.505
40 120.00 1200.03 79 228 1.340 10000.000 0.000 -1.505
41 123.00 1200.03 109 229 1.340 10000.000 0.000 -1.505
42 126.00 1200.03 91 263 1.340 10000.000 0.000 -1.505
43 129.00 1200.03 95 298 1.340 10000.000 0.000 -1.505
44 132.00 1200.03 103 313 1.340 10000.000 0.000 -1.505
45 135.00 1200.03 99 355 1.340 10000.000 0.000 -1.505
46 138.00 1200.03 115 368 1.340 10000.000 0.000 -1.505
47 141.00 1200.03 126 402 1.340 10000.000 0.000 -1.505
48 144.00 1200.03 116 380 1.340 10000.000 0.000 -1.505
49 147.00 1200.03 118 387 1.340 10000.000 0.000 -1.505
50 150.00 1200.03 100 406 1.340 10000.000 0.000 -1.505
51 153.00 1200.03 98 373 1.340 10000.000 0.000 -1.505
52 156.00 1200.03 101 336 1.340 10000.000 0.000 -1.505
53 159.00 1200.03 97 273 1.340 10000.000 0.000 -1.505
54 162.00 1200.03 82 304 1.340 10000.000 0.000 -1.505
55 165.00 1200.03 82 232 1.340 10000.000 0.000 -1.505
56 168.00 1200.03 82 221 1.340 10000.000 0.000 -1.505
57 171.00 1200.03 71 191 1.340 10000.000 0.000 -1.505
58 174.00 1200.03 68 186 1.340 10000.000 0.000 -1.505
59 177.00 1200.03 88 187 1.340 10000.000 0.000 -1.505
60 180.00 1200.03 64 135 1.340 10000.000 0.000 -1.505
61 183.00 1200.03 75 123 1.340 10000.000 0.000 -1.505
62 186.00 1200.03 75 108 1.340 10000.000 0.000 -1.505
63 189.00 1200.03 66 123 1.340 10000.000 0.000 -1.505
64 192.00 1200.03 76 124 1.340 10000.000 0.000 -1.505
65 195.00 1200.03 83 105 1.340 10000.000 0.000 -1.505
66 198.00 1200.03 68 122 1.340 10000.000 0.000 -1.505
67 201.00 1200.03 64 127 1.340 10000.000 0.000 -1.505
68 204.00 1200.03 75 131 1.340 10000.000 0.000 -1.505
69 207.00 1200.03 88 114 1.340 10000.000 0.000 -1.505
70 210.00 1200.03 86 133 1.340 10000.000 0.000 -1.505
71 213.00 1200.03 70 169 1.340 10000.000 0.000 -1.505
72 216.00 1200.03 83 211 1.340 10000.000 0.000 -1.505
73 219.00 1200.03 89 217 1.340 10000.000 0.000 -1.505
74 222.00 1200.03 74 231 1.340 10000.000 0.000 -1.505
75 225.00 1200.03 91 269 1.340 10000.000 0.000 -1.505
76 228.00 1200.03 98 324 1.340 10000.000 0.000 -1.505
77 231.00 1200.03 106 300 1.340 10000.000 0.000 -1.505
78 234.00 1200.03 98 379 1.340 10000.000 0.000 -1.505
79 237.00 1200.03 115 351 1.340 10000.000 0.000 -1.505
80 240.00 1200.03 115 396 1.340 10000.000 0.000 -1.505
81 243.00 1200.03 115 416 1.340 10000.000 0.000 -1.505
82 246.00 1200.03 103 360 1.340 10000.000 0.000 -1.505
83 249.00 1200.03 101 389 1.340 10000.000 0.000 -1.505
84 252.00 1200.03 104 364 1.340 10000.000 0.000 -1.505
85 255.00 1200.03 95 367 1.340 10000.000 0.000 -1.505
86 258.00 1200.03 90 331 1.340 10000.000 0.000 -1.505
87 261.00 1200.03 107 311 1.340 10000.000 0.000 -1.505
88 264.00 1200.03 79 298 1.340 10000.000 0.000 -1.505
89 267.00 1200.03 84 227 1.340 10000.000 0.000 -1.505
90 270.00 1200.03 68 226 1.340 10000.000 0.000 -1.505
91 273.00 1200.03 81 193 1.340 10000.000 0.000 -1.505
92 276.00 1200.03 60 178 1.340 10000.000 0.000 -1.505
93 279.00 1200.03 70 145 1.340 10000.000 0.000 -1.505
94 282.00 1200.03 71 139 1.340 10000.000 0.000 -1.505
95 285.00 1200.03 62 108 1.340 10000.000 0.000 -1.505
96 288.00 1200.03 59 109 1.340 10000.000 0.000 -1.505
97 291.00 1200.03 63 105 1.340 10000.000 0.000 -1.505
98 294.00 1200.03 67 114 1.340 10000.000 0.000 -1.505
99 297.00 1200.03 81 97 1.340 10000.000 0.000 -1.505
100 300.00 1200.03 79 118 1.340 10000.000 0.000 -1.505
101 303.00 1200.03 73 111 1.340 10000.000 0.000 -1.505
102 306.00 1200.03 81 120 1.340 10000.000 0.000 -1.505
103 309.00 1200.03 84 130 1.340 10000.000 0.000 -1.505
104 312.00 1200.03 87 156 1.340 10000.000 0.000 -1.505
105 315.00 1200.03 97 148 1.340 10000.000 0.000 -1.505
106 318.00 1200.03 87 196 1.340 10000.000 0.000 -1.505
107 321.00 1200.03 73 221 1.340 10000.000 0.000 -1.505
108 324.00 1200.03 92 236 1.340 10000.000 0.000 -1.505
109 327.00 1200.03 92 289 1.340 10000.000 0.000 -1.505
110 330.00 1200.03 102 336 1.340 10000.000 0.000 -1.505
111 333.00 1200.03 97 335 1.340 10000.000 0.000 -1.505
112 336.00 1200.03 101 355 1.340 10000.000 0.000 -1.505
113 339.00 1200.03 102 357 1.340 10000.000 0.000 -1.505
114 342.00 1200.03 115 406 1.340 10000.000 0.000 -1.505
115 345.00 1200.03 107 382 1.340 10000.000 0.000 -1.505
116 348.00 1200.03 94 375 1.340 10000.000 0.000 -1.505
117 351.00 1200.03 102 348 1.340 10000.000 0.000 -1.505
118 354.00 1200.03 89 365 1.340 10000.000 0.000 -1.505
119 357.00 1200.03 98 311 1.340 10000.000 0.000 -1.505
120 360.00 1200.03 93 320 1.340 10000.000 0.000 -1.505
121 363.00 1200.03 79 285 1.340 10000.000 0.000 -1.505
122 366.00 1200.03 91 285 1.340 10000.000 0.000 -1.505
123 369.00 1200.03 95 226 1.340 10000.000 0.000 -1.505
124 372.00 1200.03 77 201 1.340 10000.000 0.000 -1.505
125 375.00 1200.03 74 165 1.340 10000.000 0.000 -1.505
126 378.00 1200.03 71 166 1.340 10000.000 0.000 -1.505
127 381.00 1200.03 68 134 1.340 10000.000 0.000 -1.505
128 384.00 1200.03 61 121 1.340 10000.000 0.000 -1.505
129 387.00 1200.03 68 108 1.340 10000.000 0.000 -1.505
130 390.00 1200.03 73 105 1.340 10000.000 0.000 -1.505
131 393.00 1200.03 72 99 1.340 10000.000 0.000 -1.505
132 396.00 1200.03 64 101 1.340 10000.000 0.000 -1.505
133 399.00 1200.03 60 109 1.340 10000.000 0.000 -1.505
134 402.00 1200.03 87 113 1.340 10000.000 0.000 -1.505
