# BinNR microsec tot-time (s)  O-Beam AUX Ampl(V) f(Hz) phase(deg) chi(pos)
0 0.00 1200.01 154 469 1.340 10000.000 0.000 1.165
1 3.00 1200.01 278 967 1.340 10000.000 0.000 1.165
2 6.00 1200.01 316 950 1.340 10000.000 0.000 1.165
3 9.00 1200.01 278 1018 1.340 10000.000 0.000 1.165
4 12.00 1200.01 316 1053 1.340 10000.000 0.000 1.165
5 15.00 1200.01 332 992 1.340 10000.000 0.000 1.165
6 18.00 1200.01 352 1026 1.340 10000.000 0.000 1.165
7 21.00 1200.01 332 1074 1.340 10000.000 0.000 1.165
8 24.00 1200.01 364 1074 1.340 10000.000 0.000 1.165
9 27.00 1200.01 361 1053 1.340 10000.000 0.000 1.165
10 30.00 1200.01 345 1074 1.340 10000.000 0.000 1.165
11 33.00 1200.01 337 1042 1.340 10000.000 0.000 1.165
12 36.00 1200.01 385 1020 1.340 10000.000 0.000 1.165
13 39.00 1200.01 347 1045 1.340 10000.000 0.000 1.165
14 42.00 1200.01 383 1079 1.340 10000.000 0.000 1.165
15 45.00 1200.01 388 1075 1.340 10000.000 0.000 1.165
16 48.00 1200.01 372 1049 1.340 10000.000 0.000 1.165
17 51.00 1200.01 359 1046 1.340 10000.000 0.000 1.165
18 54.00 1200.01 334 1054 1.340 10000.000 0.000 1.165
19 57.00 1200.01 333 1080 1.340 10000.000 0.000 1.165
20 60.00 1200.01 368 1081 1.340 10000.000 0.000 1.165
21 63.00 1200.01 332 1075 1.340 10000.000 0.000 1.165
22 66.00 1200.01 348 1034 1.340 10000.000 0.000 1.165
23 69.00 1200.01 350 1040 1.340 10000.000 0.000 1.165
24 72.00 1200.01 323 1000 1.340 10000.000 0.000 1.165
25 75.00 1200.01 293 1018 1.340 10000.000 0.000 1.165
26 78.00 1200.01 285 994 1.340 10000.000 0.000 1.165
27 81.00 1200.01 312 926 1.340 10000.000 0.000 1.165
28 84.00 1200.01 287 979 1.340 10000.000 0.000 1.165
29 87.00 1200.01 287 932 1.340 10000.000 0.000 1.165
30 90.00 1200.01 256 925 1.340 10000.000 0.000 1.165
31 93.00 1200.01 290 914 1.340 10000.000 0.000 1.165
32 96.00 1200.01 298 934 1.340 10000.000 0.000 1.165
33 99.00 1200.01 255 932 1.340 10000.000 0.000 1.165
34 102.00 1200.01 290 953 1.340 10000.000 0.000 1.165
35 105.00 1200.01 314 927 1.340 10000.000 0.000 1.165
36 108.00 1200.01 337 898 1.340 10000.000 0.000 1.165
37 111.00 1200.01 345 945 1.340 10000.000 0.000 1.165
38 114.00 1200.01 333 1000 1.340 10000.000 0.000 1.165
39 117.00 1200.01 324 1064 1.340 10000.000 0.000 1.165
40 120.00 1200.01 352 1065 1.340 10000.000 0.000 1.165
41 123.00 1200.01 348 1073 1.340 10000.000 0.000 1.165
42 126.00 1200.01 367 1126 1.340 10000.000 0.000 1.165
43 129.00 1200.01 363 1032 1.340 10000.000 0.000 1.165
44 132.00 1200.01 370 1084 1.340 10000.000 0.000 1.165
45 135.00 1200.01 346 1015 1.340 10000.000 0.000 1.165
46 138.00 1200.01 339 1068 1.340 10000.000 0.000 1.165
47 141.00 1200.01 377 1014 1.340 10000.000 0.000 1.165
48 144.00 1200.01 362 1059 1.340 10000.000 0.000 1.165
49 147.00 1200.01 350 1087 1.340 10000.000 0.000 1.165
50 150.00 1200.01 375 1072 1.340 10000.000 0.000 1.165
51 153.00 1200.01 350 1043 1.340 10000.000 0.000 1.165
52 156.00 1200.01 373 1025 1.340 10000.000 0.000 1.165
53 159.00 1200.01 341 1051 1.340 10000.000 0.000 1.165
54 162.00 1200.01 330 1088 1.340 10000.000 0.000 1.165
55 165.00 1200.01 351 1020 1.340 10000.000 0.000 1.165
56 168.00 1200.01 353 1046 1.340 10000.000 0.000 1.165
57 171.00 1200.01 321 1041 1.340 10000.000 0.000 1.165
58 174.00 1200.01 292 1018 1.340 10000.000 0.000 1.165
59 177.00 1200.01 306 990 1.340 10000.000 0.000 1.165
60 180.00 1200.01 288 925 1.340 10000.000 0.000 1.165
61 183.00 1200.01 326 949 1.340 10000.000 0.000 1.165
62 186.00 1200.01 302 953 1.340 10000.000 0.000 1.165
63 189.00 1200.01 278 936 1.340 10000.000 0.000 1.165
64 192.00 1200.01 297 893 1.340 10000.000 0.000 1.165
65 195.00 1200.01 259 908 1.340 10000.000 0.000 1.165
66 198.00 1200.01 318 934 1.340 10000.000 0.000 1.165
67 201.00 1200.01 283 936 1.340 10000.000 0.000 1.165
68 204.00 1200.01 306 905 1.340 10000.000 0.000 1.165
69 207.00 1200.01 291 901 1.340 10000.000 0.000 1.165
70 210.00 1200.01 332 965 1.340 10000.000 0.000 1.165
71 213.00 1200.01 322 965 1.340 10000.000 0.000 1.165
72 216.00 1200.01 339 1070 1.340 10000.000 0.000 1.165
73 219.00 1200.01 336 1016 1.340 10000.000 0.000 1.165
74 222.00 1200.01 335 1033 1.340 10000.000 0.000 1.165
75 225.00 1200.01 336 1059 1.340 10000.000 0.000 1.165
76 228.00 1200.01 363 1053 1.340 10000.000 0.000 1.165
77 231.00 1200.01 364 1083 1.340 10000.000 0.000 1.165
78 234.00 1200.01 366 1042 1.340 10000.000 0.000 1.165
79 237.00 1200.01 330 1046 1.340 10000.000 0.000 1.165
80 240.00 1200.01 397 1077 1.340 10000.000 0.000 1.165
81 243.00 1200.01 381 1042 1.340 10000.000 0.000 1.165
82 246.00 1200.01 369 1141 1.340 10000.000 0.000 1.165
83 249.00 1200.01 378 1032 1.340 10000.000 0.000 1.165
84 252.00 1200.01 337 1099 1.340 10000.000 0.000 1.165
85 255.00 1200.01 360 1053 1.340 10000.000 0.000 1.165
86 258.00 1200.01 377 997 1.340 10000.000 0.000 1.165
87 261.00 1200.01 348 1037 1.340 10000.000 0.000 1.165
88 264.00 1200.01 328 1036 1.340 10000.000 0.000 1.165
89 267.00 1200.01 339 1096 1.340 10000.000 0.000 1.165
90 270.00 1200.01 320 1011 1.340 10000.000 0.000 1.165
91 273.00 1200.01 303 1017 1.340 10000.000 0.000 1.165
92 276.00 1200.01 329 987 1.340 10000.000 0.000 1.165
93 279.00 1200.01 298 946 1.340 10000.000 0.000 1.165
94 282.00 1200.01 317 979 1.340 10000.000 0.000 1.165
95 285.00 1200.01 322 901 1.340 10000.000 0.000 1.165
96 288.00 1200.01 300 929 1.340 10000.000 0.000 1.165
97 291.00 1200.01 299 898 1.340 10000.000 0.000 1.165
98 294.00 1200.01 288 904 1.340 10000.000 0.000 1.165
99 297.00 1200.01 248 907 1.340 10000.000 0.000 1.165
100 300.00 1200.01 283 961 1.340 10000.000 0.000 1.165
101 303.00 1200.01 274 942 1.340 10000.000 0.000 1.165
102 306.00 1200.01 272 938 1.340 10000.000 0.000 1.165
103 309.00 1200.01 286 978 1.340 10000.000 0.000 1.165
104 312.00 1200.01 338 947 1.340 10000.000 0.000 1.165
105 315.00 1200.01 345 956 1.340 10000.000 0.000 1.165
106 318.00 1200.01 310 1017 1.340 10000.000 0.000 1.165
107 321.00 1200.01 352 1062 1.340 10000.000 0.000 1.165
108 324.00 1200.01 355 1025 1.340 10000.000 0.000 1.165
109 327.00 1200.01 381 1073 1.340 10000.000 0.000 1.165
110 330.00 1200.01 372 1057 1.340 10000.000 0.000 1.165
111 333.00 1200.01 331 1062 1.340 10000.000 0.000 1.165
112 336.00 1200.01 330 1051 1.340 10000.000 0.000 1.165
113 339.00 1200.01 340 1061 1.340 10000.000 0.000 1.165
114 342.00 1200.01 367 1071 1.340 10000.000 0.000 1.165
115 345.00 1200.01 341 1097 1.340 10000.000 0.000 1.165
116 348.00 1200.01 348 1098 1.340 10000.000 0.000 1.165
117 351.00 1200.01 389 1095 1.340 10000.000 0.000 1.165
118 354.00 1200.01 392 1116 1.340 10000.000 0.000 1.165
119 357.00 1200.01 373 1116 1.340 10000.000 0.000 1.165
120 360.00 1200.01 364 1075 1.340 10000.000 0.000 1.165
121 363.00 1200.01 318 1020 1.340 10000.000 0.000 1.165
122 366.00 1200.01 357 1050 1.340 10000.000 0.000 1.165
123 369.00 1200.01 332 1108 1.340 10000.000 0.000 1.165
124 372.00 1200.01 352 1058 1.340 10000.000 0.000 1.165
125 375.00 1200.01 346 1028 1.340 10000.000 0.000 1.165
126 378.00 1200.01 342 1004 1.340 10000.000 0.000 1.165
127 381.00 1200.01 301 970 1.340 10000.000 0.000 1.165
128 384.00 1200.01 310 950 1.340 10000.000 0.000 1.165
129 387.00 1200.01 326 957 1.340 10000.000 0.000 1.165
130 390.00 1200.01 296 905 1.340 10000.000 0.000 1.165
131 393.00 1200.01 288 880 1.340 10000.000 0.000 1.165
132 396.00 1200.01 289 953 1.340 10000.000 0.000 1.165
133 399.00 1200.01 288 861 1.340 10000.000 0.000 1.165
134 402.00 1200.01 275 899 1.340 10000.000 0.000 1.165
