# BinNR microsec tot-time (s)  O-Beam AUX Ampl(V) f(Hz) phase(deg) chi(pos)
0 0.00 1500.01 114 231 2.050 10000.000 0.000 -0.670
1 3.00 1500.01 193 476 2.050 10000.000 0.000 -0.670
2 6.00 1500.01 222 442 2.050 10000.000 0.000 -0.670
3 9.00 1500.01 193 504 2.050 10000.000 0.000 -0.670
4 12.00 1500.01 229 439 2.050 10000.000 0.000 -0.670
5 15.00 1500.01 199 494 2.050 10000.000 0.000 -0.670
6 18.00 1500.01 212 526 2.050 10000.000 0.000 -0.670
7 21.00 1500.01 203 494 2.050 10000.000 0.000 -0.670
8 24.00 1500.01 195 485 2.050 10000.000 0.000 -0.670
9 27.00 1500.01 190 486 2.050 10000.000 0.000 -0.670
10 30.00 1500.01 200 540 2.050 10000.000 0.000 -0.670
11 33.00 1500.01 180 503 2.050 10000.000 0.000 -0.670
12 36.00 1500.01 216 483 2.050 10000.000 0.000 -0.670
13 39.00 1500.01 207 479 2.050 10000.000 0.000 -0.670
14 42.00 1500.01 224 493 2.050 10000.000 0.000 -0.670
15 45.00 1500.01 202 484 2.050 10000.000 0.000 -0.670
16 48.00 1500.01 204 495 2.050 10000.000 0.000 -0.670
17 51.00 1500.01 190 434 2.050 10000.000 0.000 -0.670
18 54.00 1500.01 230 522 2.050 10000.000 0.000 -0.670
19 57.00 1500.01 214 477 2.050 10000.000 0.000 -0.670
20 60.00 1500.01 203 509 2.050 10000.000 0.000 -0.670
21 63.00 1500.01 220 472 2.050 10000.000 0.000 -0.670
22 66.00 1500.01 182 471 2.050 10000.000 0.000 -0.670
23 69.00 1500.01 217 472 2.050 10000.000 0.000 -0.670
24 72.00 1500.01 180 504 2.050 10000.000 0.000 -0.670
25 75.00 1500.01 189 454 2.050 10000.000 0.000 -0.670
26 78.00 1500.01 194 515 2.050 10000.000 0.000 -0.670
27 81.00 1500.01 192 504 2.050 10000.000 0.000 -0.670
28 84.00 1500.01 201 456 2.050 10000.000 0.000 -0.670
29 87.00 1500.01 196 447 2.050 10000.000 0.000 -0.670
30 90.00 1500.01 212 487 2.050 10000.000 0.000 -0.670
31 93.00 1500.01 215 474 2.050 10000.000 0.000 -0.670
32 96.00 1500.01 185 449 2.050 10000.000 0.000 -0.670
33 99.00 1500.01 193 428 2.050 10000.000 0.000 -0.670
34 102.00 1500.01 230 529 2.050 10000.000 0.000 -0.670
35 105.00 1500.01 201 465 2.050 10000.000 0.000 -0.670
36 108.00 1500.01 185 461 2.050 10000.000 0.000 -0.670
37 111.00 1500.01 201 479 2.050 10000.000 0.000 -0.670
38 114.00 1500.01 200 451 2.050 10000.000 0.000 -0.670
39 117.00 1500.01 218 445 2.050 10000.000 0.000 -0.670
40 120.00 1500.01 222 469 2.050 10000.000 0.000 -0.670
41 123.00 1500.01 193 470 2.050 10000.000 0.000 -0.670
42 126.00 1500.01 217 506 2.050 10000.000 0.000 -0.670
43 129.00 1500.01 179 468 2.050 10000.000 0.000 -0.670
44 132.00 1500.01 212 509 2.050 10000.000 0.000 -0.670
45 135.00 1500.01 231 471 2.050 10000.000 0.000 -0.670
46 138.00 1500.01 189 469 2.050 10000.000 0.000 -0.670
47 141.00 1500.01 168 509 2.050 10000.000 0.000 -0.670
48 144.00 1500.01 208 455 2.050 10000.000 0.000 -0.670
49 147.00 1500.01 184 441 2.050 10000.000 0.000 -0.670
50 150.00 1500.01 207 474 2.050 10000.000 0.000 -0.670
51 153.00 1500.01 208 463 2.050 10000.000 0.000 -0.670
52 156.00 1500.01 223 488 2.050 10000.000 0.000 -0.670
53 159.00 1500.01 188 449 2.050 10000.000 0.000 -0.670
54 162.00 1500.01 219 455 2.050 10000.000 0.000 -0.670
55 165.00 1500.01 179 466 2.050 10000.000 0.000 -0.670
56 168.00 1500.01 201 480 2.050 10000.000 0.000 -0.670
57 171.00 1500.01 226 461 2.050 10000.000 0.000 -0.670
58 174.00 1500.01 216 440 2.050 10000.000 0.000 -0.670
59 177.00 1500.01 229 494 2.050 10000.000 0.000 -0.670
60 180.00 1500.01 228 450 2.050 10000.000 0.000 -0.670
61 183.00 1500.01 202 493 2.050 10000.000 0.000 -0.670
62 186.00 1500.01 210 495 2.050 10000.000 0.000 -0.670
63 189.00 1500.01 197 490 2.050 10000.000 0.000 -0.670
64 192.00 1500.01 233 493 2.050 10000.000 0.000 -0.670
65 195.00 1500.01 207 430 2.050 10000.000 0.000 -0.670
66 198.00 1500.01 200 477 2.050 10000.000 0.000 -0.670
67 201.00 1500.01 218 483 2.050 10000.000 0.000 -0.670
68 204.00 1500.01 209 488 2.050 10000.000 0.000 -0.670
69 207.00 1500.01 188 430 2.050 10000.000 0.000 -0.670
70 210.00 1500.01 193 493 2.050 10000.000 0.000 -0.670
71 213.00 1500.01 195 461 2.050 10000.000 0.000 -0.670
72 216.00 1500.01 179 512 2.050 10000.000 0.000 -0.670
73 219.00 1500.01 178 454 2.050 10000.000 0.000 -0.670
74 222.00 1500.01 198 532 2.050 10000.000 0.000 -0.670
75 225.00 1500.01 194 475 2.050 10000.000 0.000 -0.670
76 228.00 1500.01 205 506 2.050 10000.000 0.000 -0.670
77 231.00 1500.01 212 508 2.050 10000.000 0.000 -0.670
78 234.00 1500.01 202 479 2.050 10000.000 0.000 -0.670
79 237.00 1500.01 202 455 2.050 10000.000 0.000 -0.670
80 240.00 1500.01 214 450 2.050 10000.000 0.000 -0.670
81 243.00 1500.01 201 499 2.050 10000.000 0.000 -0.670
82 246.00 1500.01 200 481 2.050 10000.000 0.000 -0.670
83 249.00 1500.01 185 464 2.050 10000.000 0.000 -0.670
84 252.00 1500.01 185 466 2.050 10000.000 0.000 -0.670
85 255.00 1500.01 193 483 2.050 10000.000 0.000 -0.670
86 258.00 1500.01 193 477 2.050 10000.000 0.000 -0.670
87 261.00 1500.01 189 456 2.050 10000.000 0.000 -0.670
88 264.00 1500.01 209 508 2.050 10000.000 0.000 -0.670
89 267.00 1500.01 206 467 2.050 10000.000 0.000 -0.670
90 270.00 1500.01 202 499 2.050 10000.000 0.000 -0.670
91 273.00 1500.01 201 474 2.050 10000.000 0.000 -0.670
92 276.00 1500.01 217 440 2.050 10000.000 0.000 -0.670
93 279.00 1500.01 225 454 2.050 10000.000 0.000 -0.670
94 282.00 1500.01 189 490 2.050 10000.000 0.000 -0.670
95 285.00 1500.01 209 474 2.050 10000.000 0.000 -0.670
96 288.00 1500.01 211 468 2.050 10000.000 0.000 -0.670
97 291.00 1500.01 188 459 2.050 10000.000 0.000 -0.670
98 294.00 1500.01 210 468 2.050 10000.000 0.000 -0.670
99 297.00 1500.01 211 506 2.050 10000.000 0.000 -0.670
100 300.00 1500.01 184 457 2.050 10000.000 0.000 -0.670
101 303.00 1500.01 175 480 2.050 10000.000 0.000 -0.670
102 306.00 1500.01 235 473 2.050 10000.000 0.000 -0.670
103 309.00 1500.01 198 501 2.050 10000.000 0.000 -0.670
104 312.00 1500.01 213 410 2.050 10000.000 0.000 -0.670
105 315.00 1500.01 170 457 2.050 10000.000 0.000 -0.670
106 318.00 1500.01 203 473 2.050 10000.000 0.000 -0.670
107 321.00 1500.01 189 498 2.050 10000.000 0.000 -0.670
108 324.00 1500.01 198 516 2.050 10000.000 0.000 -0.670
109 327.00 1500.01 222 487 2.050 10000.000 0.000 -0.670
110 330.00 1500.01 197 480 2.050 10000.000 0.000 -0.670
111 333.00 1500.01 223 463 2.050 10000.000 0.000 -0.670
112 336.00 1500.01 204 475 2.050 10000.000 0.000 -0.670
113 339.00 1500.01 179 473 2.050 10000.000 0.000 -0.670
114 342.00 1500.01 205 483 2.050 10000.000 0.000 -0.670
115 345.00 1500.01 179 465 2.050 10000.000 0.000 -0.670
116 348.00 1500.01 198 459 2.050 10000.000 0.000 -0.670
117 351.00 1500.01 189 486 2.050 10000.000 0.000 -0.670
118 354.00 1500.01 212 478 2.050 10000.000 0.000 -0.670
119 357.00 1500.01 206 450 2.050 10000.000 0.000 -0.670
120 360.00 1500.01 203 474 2.050 10000.000 0.000 -0.670
121 363.00 1500.01 193 477 2.050 10000.000 0.000 -0.670
122 366.00 1500.01 206 482 2.050 10000.000 0.000 -0.670
123 369.00 1500.01 196 482 2.050 10000.000 0.000 -0.670
124 372.00 1500.01 203 487 2.050 10000.000 0.000 -0.670
125 375.00 1500.01 217 465 2.050 10000.000 0.000 -0.670
126 378.00 1500.01 199 461 2.050 10000.000 0.000 -0.670
127 381.00 1500.01 205 468 2.050 10000.000 0.000 -0.670
128 384.00 1500.01 208 474 2.050 10000.000 0.000 -0.670
129 387.00 1500.01 203 473 2.050 10000.000 0.000 -0.670
130 390.00 1500.01 194 470 2.050 10000.000 0.000 -0.670
131 393.00 1500.01 196 457 2.050 10000.000 0.000 -0.670
132 396.00 1500.01 222 500 2.050 10000.000 0.000 -0.670
133 399.00 1500.01 201 473 2.050 10000.000 0.000 -0.670
134 402.00 1500.01 190 480 2.050 10000.000 0.000 -0.670
