# BinNR microsec tot-time (s)  O-Beam AUX Ampl(V) f(Hz) phase(deg) chi(pos)
0 0.00 1500.00 81 170 2.050 10000.000 0.000 1.329
1 3.00 1500.00 148 321 2.050 10000.000 0.000 1.329
2 6.00 1500.00 166 338 2.050 10000.000 0.000 1.329
3 9.00 1500.00 178 322 2.050 10000.000 0.000 1.329
4 12.00 1500.00 169 332 2.050 10000.000 0.000 1.329
5 15.00 1500.00 163 363 2.050 10000.000 0.000 1.329
6 18.00 1500.00 161 349 2.050 10000.000 0.000 1.329
7 21.00 1500.00 144 313 2.050 10000.000 0.000 1.329
8 24.00 1500.00 153 331 2.050 10000.000 0.000 1.329
9 27.00 1500.00 164 305 2.050 10000.000 0.000 1.329
10 30.00 1500.00 156 310 2.050 10000.000 0.000 1.329
11 33.00 1500.00 166 284 2.050 10000.000 0.000 1.329
12 36.00 1500.00 169 345 2.050 10000.000 0.000 1.329
13 39.00 1500.00 180 320 2.050 10000.000 0.000 1.329
14 42.00 1500.00 174 338 2.050 10000.000 0.000 1.329
15 45.00 1500.00 169 308 2.050 10000.000 0.000 1.329
16 48.00 1500.00 151 309 2.050 10000.000 0.000 1.329
17 51.00 1500.00 170 335 2.050 10000.000 0.000 1.329
18 54.00 1500.00 188 327 2.050 10000.000 0.000 1.329
19 57.00 1500.00 165 315 2.050 10000.000 0.000 1.329
20 60.00 1500.00 184 356 2.050 10000.000 0.000 1.329
21 63.00 1500.00 162 291 2.050 10000.000 0.000 1.329
22 66.00 1500.00 165 337 2.050 10000.000 0.000 1.329
23 69.00 1500.00 161 313 2.050 10000.000 0.000 1.329
24 72.00 1500.00 154 329 2.050 10000.000 0.000 1.329
25 75.00 1500.00 185 299 2.050 10000.000 0.000 1.329
26 78.00 1500.00 155 346 2.050 10000.000 0.000 1.329
27 81.00 1500.00 152 313 2.050 10000.000 0.000 1.329
28 84.00 1500.00 178 307 2.050 10000.000 0.000 1.329
29 87.00 1500.00 171 372 2.050 10000.000 0.000 1.329
30 90.00 1500.00 190 337 2.050 10000.000 0.000 1.329
31 93.00 1500.00 190 319 2.050 10000.000 0.000 1.329
32 96.00 1500.00 145 300 2.050 10000.000 0.000 1.329
33 99.00 1500.00 164 352 2.050 10000.000 0.000 1.329
34 102.00 1500.00 177 328 2.050 10000.000 0.000 1.329
35 105.00 1500.00 176 322 2.050 10000.000 0.000 1.329
36 108.00 1500.00 176 338 2.050 10000.000 0.000 1.329
37 111.00 1500.00 139 314 2.050 10000.000 0.000 1.329
38 114.00 1500.00 176 328 2.050 10000.000 0.000 1.329
39 117.00 1500.00 197 330 2.050 10000.000 0.000 1.329
40 120.00 1500.00 171 336 2.050 10000.000 0.000 1.329
41 123.00 1500.00 161 343 2.050 10000.000 0.000 1.329
42 126.00 1500.00 176 342 2.050 10000.000 0.000 1.329
43 129.00 1500.00 172 348 2.050 10000.000 0.000 1.329
44 132.00 1500.00 185 310 2.050 10000.000 0.000 1.329
45 135.00 1500.00 140 326 2.050 10000.000 0.000 1.329
46 138.00 1500.00 204 329 2.050 10000.000 0.000 1.329
47 141.00 1500.00 153 331 2.050 10000.000 0.000 1.329
48 144.00 1500.00 149 322 2.050 10000.000 0.000 1.329
49 147.00 1500.00 159 338 2.050 10000.000 0.000 1.329
50 150.00 1500.00 180 327 2.050 10000.000 0.000 1.329
51 153.00 1500.00 190 352 2.050 10000.000 0.000 1.329
52 156.00 1500.00 171 288 2.050 10000.000 0.000 1.329
53 159.00 1500.00 169 328 2.050 10000.000 0.000 1.329
54 162.00 1500.00 159 336 2.050 10000.000 0.000 1.329
55 165.00 1500.00 182 301 2.050 10000.000 0.000 1.329
56 168.00 1500.00 176 313 2.050 10000.000 0.000 1.329
57 171.00 1500.00 155 310 2.050 10000.000 0.000 1.329
58 174.00 1500.00 194 343 2.050 10000.000 0.000 1.329
59 177.00 1500.00 172 330 2.050 10000.000 0.000 1.329
60 180.00 1500.00 173 335 2.050 10000.000 0.000 1.329
61 183.00 1500.00 189 357 2.050 10000.000 0.000 1.329
62 186.00 1500.00 179 309 2.050 10000.000 0.000 1.329
63 189.00 1500.00 203 294 2.050 10000.000 0.000 1.329
64 192.00 1500.00 174 323 2.050 10000.000 0.000 1.329
65 195.00 1500.00 191 323 2.050 10000.000 0.000 1.329
66 198.00 1500.00 167 342 2.050 10000.000 0.000 1.329
67 201.00 1500.00 155 298 2.050 10000.000 0.000 1.329
68 204.00 1500.00 192 295 2.050 10000.000 0.000 1.329
69 207.00 1500.00 153 334 2.050 10000.000 0.000 1.329
70 210.00 1500.00 163 308 2.050 10000.000 0.000 1.329
71 213.00 1500.00 159 351 2.050 10000.000 0.000 1.329
72 216.00 1500.00 183 341 2.050 10000.000 0.000 1.329
73 219.00 1500.00 169 319 2.050 10000.000 0.000 1.329
74 222.00 1500.00 185 323 2.050 10000.000 0.000 1.329
75 225.00 1500.00 172 343 2.050 10000.000 0.000 1.329
76 228.00 1500.00 163 319 2.050 10000.000 0.000 1.329
77 231.00 1500.00 176 339 2.050 10000.000 0.000 1.329
78 234.00 1500.00 188 284 2.050 10000.000 0.000 1.329
79 237.00 1500.00 172 323 2.050 10000.000 0.000 1.329
80 240.00 1500.00 160 306 2.050 10000.000 0.000 1.329
81 243.00 1500.00 166 315 2.050 10000.000 0.000 1.329
82 246.00 1500.00 179 322 2.050 10000.000 0.000 1.329
83 249.00 1500.00 158 326 2.050 10000.000 0.000 1.329
84 252.00 1500.00 154 336 2.050 10000.000 0.000 1.329
85 255.00 1500.00 169 319 2.050 10000.000 0.000 1.329
86 258.00 1500.00 179 310 2.050 10000.000 0.000 1.329
87 261.00 1500.00 163 342 2.050 10000.000 0.000 1.329
88 264.00 1500.00 162 307 2.050 10000.000 0.000 1.329
89 267.00 1500.00 168 338 2.050 10000.000 0.000 1.329
90 270.00 1500.00 189 315 2.050 10000.000 0.000 1.329
91 273.00 1500.00 189 369 2.050 10000.000 0.000 1.329
92 276.00 1500.00 191 317 2.050 10000.000 0.000 1.329
93 279.00 1500.00 210 311 2.050 10000.000 0.000 1.329
94 282.00 1500.00 193 324 2.050 10000.000 0.000 1.329
95 285.00 1500.00 182 321 2.050 10000.000 0.000 1.329
96 288.00 1500.00 181 316 2.050 10000.000 0.000 1.329
97 291.00 1500.00 182 342 2.050 10000.000 0.000 1.329
98 294.00 1500.00 167 313 2.050 10000.000 0.000 1.329
99 297.00 1500.00 183 321 2.050 10000.000 0.000 1.329
100 300.00 1500.00 173 334 2.050 10000.000 0.000 1.329
101 303.00 1500.00 162 312 2.050 10000.000 0.000 1.329
102 306.00 1500.00 166 334 2.050 10000.000 0.000 1.329
103 309.00 1500.00 176 333 2.050 10000.000 0.000 1.329
104 312.00 1500.00 195 337 2.050 10000.000 0.000 1.329
105 315.00 1500.00 167 295 2.050 10000.000 0.000 1.329
106 318.00 1500.00 180 309 2.050 10000.000 0.000 1.329
107 321.00 1500.00 144 320 2.050 10000.000 0.000 1.329
108 324.00 1500.00 182 316 2.050 10000.000 0.000 1.329
109 327.00 1500.00 174 349 2.050 10000.000 0.000 1.329
110 330.00 1500.00 171 337 2.050 10000.000 0.000 1.329
111 333.00 1500.00 188 337 2.050 10000.000 0.000 1.329
112 336.00 1500.00 189 330 2.050 10000.000 0.000 1.329
113 339.00 1500.00 168 317 2.050 10000.000 0.000 1.329
114 342.00 1500.00 161 339 2.050 10000.000 0.000 1.329
115 345.00 1500.00 179 329 2.050 10000.000 0.000 1.329
116 348.00 1500.00 191 353 2.050 10000.000 0.000 1.329
117 351.00 1500.00 176 313 2.050 10000.000 0.000 1.329
118 354.00 1500.00 167 345 2.050 10000.000 0.000 1.329
119 357.00 1500.00 176 340 2.050 10000.000 0.000 1.329
120 360.00 1500.00 188 333 2.050 10000.000 0.000 1.329
121 363.00 1500.00 183 300 2.050 10000.000 0.000 1.329
122 366.00 1500.00 169 345 2.050 10000.000 0.000 1.329
123 369.00 1500.00 153 325 2.050 10000.000 0.000 1.329
124 372.00 1500.00 183 345 2.050 10000.000 0.000 1.329
125 375.00 1500.00 175 316 2.050 10000.000 0.000 1.329
126 378.00 1500.00 195 323 2.050 10000.000 0.000 1.329
127 381.00 1500.00 160 338 2.050 10000.000 0.000 1.329
128 384.00 1500.00 162 313 2.050 10000.000 0.000 1.329
129 387.00 1500.00 159 305 2.050 10000.000 0.000 1.329
130 390.00 1500.00 169 345 2.050 10000.000 0.000 1.329
131 393.00 1500.00 162 328 2.050 10000.000 0.000 1.329
132 396.00 1500.00 179 366 2.050 10000.000 0.000 1.329
133 399.00 1500.00 182 316 2.050 10000.000 0.000 1.329
134 402.00 1500.00 173 295 2.050 10000.000 0.000 1.329
