# BinNR microsec tot-time (s)  O-Beam AUX Ampl(V) f(Hz) phase(deg) chi(pos)
0 0.00 1500.01 105 183 2.050 10000.000 0.000 0.824
1 3.00 1500.01 206 364 2.050 10000.000 0.000 0.824
2 6.00 1500.01 211 310 2.050 10000.000 0.000 0.824
3 9.00 1500.01 203 376 2.050 10000.000 0.000 0.824
4 12.00 1500.01 216 349 2.050 10000.000 0.000 0.824
5 15.00 1500.01 204 336 2.050 10000.000 0.000 0.824
6 18.00 1500.01 207 340 2.050 10000.000 0.000 0.824
7 21.00 1500.01 212 329 2.050 10000.000 0.000 0.824
8 24.00 1500.01 206 355 2.050 10000.000 0.000 0.824
9 27.00 1500.01 189 328 2.050 10000.000 0.000 0.824
10 30.00 1500.01 236 371 2.050 10000.000 0.000 0.824
11 33.00 1500.01 194 387 2.050 10000.000 0.000 0.824
12 36.00 1500.01 225 386 2.050 10000.000 0.000 0.824
13 39.00 1500.01 208 347 2.050 10000.000 0.000 0.824
14 42.00 1500.01 196 318 2.050 10000.000 0.000 0.824
15 45.00 1500.01 196 333 2.050 10000.000 0.000 0.824
16 48.00 1500.01 212 364 2.050 10000.000 0.000 0.824
17 51.00 1500.01 209 395 2.050 10000.000 0.000 0.824
18 54.00 1500.01 198 305 2.050 10000.000 0.000 0.824
19 57.00 1500.01 204 354 2.050 10000.000 0.000 0.824
20 60.00 1500.01 226 335 2.050 10000.000 0.000 0.824
21 63.00 1500.01 202 358 2.050 10000.000 0.000 0.824
22 66.00 1500.01 237 360 2.050 10000.000 0.000 0.824
23 69.00 1500.01 222 331 2.050 10000.000 0.000 0.824
24 72.00 1500.01 218 344 2.050 10000.000 0.000 0.824
25 75.00 1500.01 230 376 2.050 10000.000 0.000 0.824
26 78.00 1500.01 180 357 2.050 10000.000 0.000 0.824
27 81.00 1500.01 223 318 2.050 10000.000 0.000 0.824
28 84.00 1500.01 214 314 2.050 10000.000 0.000 0.824
29 87.00 1500.01 197 369 2.050 10000.000 0.000 0.824
30 90.00 1500.01 211 364 2.050 10000.000 0.000 0.824
31 93.00 1500.01 188 329 2.050 10000.000 0.000 0.824
32 96.00 1500.01 203 369 2.050 10000.000 0.000 0.824
33 99.00 1500.01 206 373 2.050 10000.000 0.000 0.824
34 102.00 1500.01 213 363 2.050 10000.000 0.000 0.824
35 105.00 1500.01 208 343 2.050 10000.000 0.000 0.824
36 108.00 1500.01 211 368 2.050 10000.000 0.000 0.824
37 111.00 1500.01 193 344 2.050 10000.000 0.000 0.824
38 114.00 1500.01 197 361 2.050 10000.000 0.000 0.824
39 117.00 1500.01 196 346 2.050 10000.000 0.000 0.824
40 120.00 1500.01 198 341 2.050 10000.000 0.000 0.824
41 123.00 1500.01 202 322 2.050 10000.000 0.000 0.824
42 126.00 1500.01 202 365 2.050 10000.000 0.000 0.824
43 129.00 1500.01 198 349 2.050 10000.000 0.000 0.824
44 132.00 1500.01 218 368 2.050 10000.000 0.000 0.824
45 135.00 1500.01 214 319 2.050 10000.000 0.000 0.824
46 138.00 1500.01 203 352 2.050 10000.000 0.000 0.824
47 141.00 1500.01 208 350 2.050 10000.000 0.000 0.824
48 144.00 1500.01 217 379 2.050 10000.000 0.000 0.824
49 147.00 1500.01 188 324 2.050 10000.000 0.000 0.824
50 150.00 1500.01 212 352 2.050 10000.000 0.000 0.824
51 153.00 1500.01 209 354 2.050 10000.000 0.000 0.824
52 156.00 1500.01 218 301 2.050 10000.000 0.000 0.824
53 159.00 1500.01 185 359 2.050 10000.000 0.000 0.824
54 162.00 1500.01 196 367 2.050 10000.000 0.000 0.824
55 165.00 1500.01 192 351 2.050 10000.000 0.000 0.824
56 168.00 1500.01 187 393 2.050 10000.000 0.000 0.824
57 171.00 1500.01 219 365 2.050 10000.000 0.000 0.824
58 174.00 1500.01 208 299 2.050 10000.000 0.000 0.824
59 177.00 1500.01 200 368 2.050 10000.000 0.000 0.824
60 180.00 1500.01 212 378 2.050 10000.000 0.000 0.824
61 183.00 1500.01 175 388 2.050 10000.000 0.000 0.824
62 186.00 1500.01 186 373 2.050 10000.000 0.000 0.824
63 189.00 1500.01 213 371 2.050 10000.000 0.000 0.824
64 192.00 1500.01 203 326 2.050 10000.000 0.000 0.824
65 195.00 1500.01 222 352 2.050 10000.000 0.000 0.824
66 198.00 1500.01 187 330 2.050 10000.000 0.000 0.824
67 201.00 1500.01 202 315 2.050 10000.000 0.000 0.824
68 204.00 1500.01 231 357 2.050 10000.000 0.000 0.824
69 207.00 1500.01 210 358 2.050 10000.000 0.000 0.824
70 210.00 1500.01 201 363 2.050 10000.000 0.000 0.824
71 213.00 1500.01 183 374 2.050 10000.000 0.000 0.824
72 216.00 1500.01 219 359 2.050 10000.000 0.000 0.824
73 219.00 1500.01 198 348 2.050 10000.000 0.000 0.824
74 222.00 1500.01 191 351 2.050 10000.000 0.000 0.824
75 225.00 1500.01 207 325 2.050 10000.000 0.000 0.824
76 228.00 1500.01 207 343 2.050 10000.000 0.000 0.824
77 231.00 1500.01 231 355 2.050 10000.000 0.000 0.824
78 234.00 1500.01 220 346 2.050 10000.000 0.000 0.824
79 237.00 1500.01 212 367 2.050 10000.000 0.000 0.824
80 240.00 1500.01 216 353 2.050 10000.000 0.000 0.824
81 243.00 1500.01 215 341 2.050 10000.000 0.000 0.824
82 246.00 1500.01 213 342 2.050 10000.000 0.000 0.824
83 249.00 1500.01 205 342 2.050 10000.000 0.000 0.824
84 252.00 1500.01 229 340 2.050 10000.000 0.000 0.824
85 255.00 1500.01 212 356 2.050 10000.000 0.000 0.824
86 258.00 1500.01 208 349 2.050 10000.000 0.000 0.824
87 261.00 1500.01 230 342 2.050 10000.000 0.000 0.824
88 264.00 1500.01 198 333 2.050 10000.000 0.000 0.824
89 267.00 1500.01 210 367 2.050 10000.000 0.000 0.824
90 270.00 1500.01 224 342 2.050 10000.000 0.000 0.824
91 273.00 1500.01 200 342 2.050 10000.000 0.000 0.824
92 276.00 1500.01 190 352 2.050 10000.000 0.000 0.824
93 279.00 1500.01 207 351 2.050 10000.000 0.000 0.824
94 282.00 1500.01 181 367 2.050 10000.000 0.000 0.824
95 285.00 1500.01 207 354 2.050 10000.000 0.000 0.824
96 288.00 1500.01 209 360 2.050 10000.000 0.000 0.824
97 291.00 1500.01 174 361 2.050 10000.000 0.000 0.824
98 294.00 1500.01 195 336 2.050 10000.000 0.000 0.824
99 297.00 1500.01 182 377 2.050 10000.000 0.000 0.824
100 300.00 1500.01 208 333 2.050 10000.000 0.000 0.824
101 303.00 1500.01 180 330 2.050 10000.000 0.000 0.824
102 306.00 1500.01 225 349 2.050 10000.000 0.000 0.824
103 309.00 1500.01 210 353 2.050 10000.000 0.000 0.824
104 312.00 1500.01 190 369 2.050 10000.000 0.000 0.824
105 315.00 1500.01 206 374 2.050 10000.000 0.000 0.824
106 318.00 1500.01 192 347 2.050 10000.000 0.000 0.824
107 321.00 1500.01 198 342 2.050 10000.000 0.000 0.824
108 324.00 1500.01 194 325 2.050 10000.000 0.000 0.824
109 327.00 1500.01 209 359 2.050 10000.000 0.000 0.824
110 330.00 1500.01 206 358 2.050 10000.000 0.000 0.824
111 333.00 1500.01 188 337 2.050 10000.000 0.000 0.824
112 336.00 1500.01 210 353 2.050 10000.000 0.000 0.824
113 339.00 1500.01 192 329 2.050 10000.000 0.000 0.824
114 342.00 1500.01 211 349 2.050 10000.000 0.000 0.824
115 345.00 1500.01 213 366 2.050 10000.000 0.000 0.824
116 348.00 1500.01 222 309 2.050 10000.000 0.000 0.824
117 351.00 1500.01 223 332 2.050 10000.000 0.000 0.824
118 354.00 1500.01 183 342 2.050 10000.000 0.000 0.824
119 357.00 1500.01 223 340 2.050 10000.000 0.000 0.824
120 360.00 1500.01 226 380 2.050 10000.000 0.000 0.824
121 363.00 1500.01 203 333 2.050 10000.000 0.000 0.824
122 366.00 1500.01 207 414 2.050 10000.000 0.000 0.824
123 369.00 1500.01 197 370 2.050 10000.000 0.000 0.824
124 372.00 1500.01 196 378 2.050 10000.000 0.000 0.824
125 375.00 1500.01 195 310 2.050 10000.000 0.000 0.824
126 378.00 1500.01 194 348 2.050 10000.000 0.000 0.824
127 381.00 1500.01 215 357 2.050 10000.000 0.000 0.824
128 384.00 1500.01 220 342 2.050 10000.000 0.000 0.824
129 387.00 1500.01 189 357 2.050 10000.000 0.000 0.824
130 390.00 1500.01 214 336 2.050 10000.000 0.000 0.824
131 393.00 1500.01 208 303 2.050 10000.000 0.000 0.824
132 396.00 1500.01 222 317 2.050 10000.000 0.000 0.824
133 399.00 1500.01 221 372 2.050 10000.000 0.000 0.824
134 402.00 1500.01 217 372 2.050 10000.000 0.000 0.824
