# BinNR microsec tot-time (s)  O-Beam AUX Ampl(V) f(Hz) phase(deg) chi(pos)
0 0.00 1500.01 85 116 2.050 10000.000 0.000 1.165
1 3.00 1500.01 168 251 2.050 10000.000 0.000 1.165
2 6.00 1500.01 189 238 2.050 10000.000 0.000 1.165
3 9.00 1500.01 162 234 2.050 10000.000 0.000 1.165
4 12.00 1500.01 172 223 2.050 10000.000 0.000 1.165
5 15.00 1500.01 146 225 2.050 10000.000 0.000 1.165
6 18.00 1500.01 196 259 2.050 10000.000 0.000 1.165
7 21.00 1500.01 146 229 2.050 10000.000 0.000 1.165
8 24.00 1500.01 186 237 2.050 10000.000 0.000 1.165
9 27.00 1500.01 161 230 2.050 10000.000 0.000 1.165
10 30.00 1500.01 149 251 2.050 10000.000 0.000 1.165
11 33.00 1500.01 150 271 2.050 10000.000 0.000 1.165
12 36.00 1500.01 167 243 2.050 10000.000 0.000 1.165
13 39.00 1500.01 177 238 2.050 10000.000 0.000 1.165
14 42.00 1500.01 154 240 2.050 10000.000 0.000 1.165
15 45.00 1500.01 170 245 2.050 10000.000 0.000 1.165
16 48.00 1500.01 161 251 2.050 10000.000 0.000 1.165
17 51.00 1500.01 156 220 2.050 10000.000 0.000 1.165
18 54.00 1500.01 154 249 2.050 10000.000 0.000 1.165
19 57.00 1500.01 148 220 2.050 10000.000 0.000 1.165
20 60.00 1500.01 170 246 2.050 10000.000 0.000 1.165
21 63.00 1500.01 160 255 2.050 10000.000 0.000 1.165
22 66.00 1500.01 147 209 2.050 10000.000 0.000 1.165
23 69.00 1500.01 164 219 2.050 10000.000 0.000 1.165
24 72.00 1500.01 142 230 2.050 10000.000 0.000 1.165
25 75.00 1500.01 156 239 2.050 10000.000 0.000 1.165
26 78.00 1500.01 171 248 2.050 10000.000 0.000 1.165
27 81.00 1500.01 157 220 2.050 10000.000 0.000 1.165
28 84.00 1500.01 171 255 2.050 10000.000 0.000 1.165
29 87.00 1500.01 140 286 2.050 10000.000 0.000 1.165
30 90.00 1500.01 170 259 2.050 10000.000 0.000 1.165
31 93.00 1500.01 153 248 2.050 10000.000 0.000 1.165
32 96.00 1500.01 151 248 2.050 10000.000 0.000 1.165
33 99.00 1500.01 157 254 2.050 10000.000 0.000 1.165
34 102.00 1500.01 175 227 2.050 10000.000 0.000 1.165
35 105.00 1500.01 163 247 2.050 10000.000 0.000 1.165
36 108.00 1500.01 186 250 2.050 10000.000 0.000 1.165
37 111.00 1500.01 158 261 2.050 10000.000 0.000 1.165
38 114.00 1500.01 157 236 2.050 10000.000 0.000 1.165
39 117.00 1500.01 156 226 2.050 10000.000 0.000 1.165
40 120.00 1500.01 151 253 2.050 10000.000 0.000 1.165
41 123.00 1500.01 145 239 2.050 10000.000 0.000 1.165
42 126.00 1500.01 167 233 2.050 10000.000 0.000 1.165
43 129.00 1500.01 165 246 2.050 10000.000 0.000 1.165
44 132.00 1500.01 150 269 2.050 10000.000 0.000 1.165
45 135.00 1500.01 172 239 2.050 10000.000 0.000 1.165
46 138.00 1500.01 165 239 2.050 10000.000 0.000 1.165
47 141.00 1500.01 180 256 2.050 10000.000 0.000 1.165
48 144.00 1500.01 146 227 2.050 10000.000 0.000 1.165
49 147.00 1500.01 154 241 2.050 10000.000 0.000 1.165
50 150.00 1500.01 146 233 2.050 10000.000 0.000 1.165
51 153.00 1500.01 173 217 2.050 10000.000 0.000 1.165
52 156.00 1500.01 149 256 2.050 10000.000 0.000 1.165
53 159.00 1500.01 154 213 2.050 10000.000 0.000 1.165
54 162.00 1500.01 159 209 2.050 10000.000 0.000 1.165
55 165.00 1500.01 151 241 2.050 10000.000 0.000 1.165
56 168.00 1500.01 159 283 2.050 10000.000 0.000 1.165
57 171.00 1500.01 181 237 2.050 10000.000 0.000 1.165
58 174.00 1500.01 164 239 2.050 10000.000 0.000 1.165
59 177.00 1500.01 180 241 2.050 10000.000 0.000 1.165
60 180.00 1500.01 154 257 2.050 10000.000 0.000 1.165
61 183.00 1500.01 156 231 2.050 10000.000 0.000 1.165
62 186.00 1500.01 146 249 2.050 10000.000 0.000 1.165
63 189.00 1500.01 153 216 2.050 10000.000 0.000 1.165
64 192.00 1500.01 179 238 2.050 10000.000 0.000 1.165
65 195.00 1500.01 146 206 2.050 10000.000 0.000 1.165
66 198.00 1500.01 170 252 2.050 10000.000 0.000 1.165
67 201.00 1500.01 169 246 2.050 10000.000 0.000 1.165
68 204.00 1500.01 166 250 2.050 10000.000 0.000 1.165
69 207.00 1500.01 139 236 2.050 10000.000 0.000 1.165
70 210.00 1500.01 145 231 2.050 10000.000 0.000 1.165
71 213.00 1500.01 160 253 2.050 10000.000 0.000 1.165
72 216.00 1500.01 164 244 2.050 10000.000 0.000 1.165
73 219.00 1500.01 153 224 2.050 10000.000 0.000 1.165
74 222.00 1500.01 165 247 2.050 10000.000 0.000 1.165
75 225.00 1500.01 147 228 2.050 10000.000 0.000 1.165
76 228.00 1500.01 155 234 2.050 10000.000 0.000 1.165
77 231.00 1500.01 145 208 2.050 10000.000 0.000 1.165
78 234.00 1500.01 162 276 2.050 10000.000 0.000 1.165
79 237.00 1500.01 156 244 2.050 10000.000 0.000 1.165
80 240.00 1500.01 138 243 2.050 10000.000 0.000 1.165
81 243.00 1500.01 142 225 2.050 10000.000 0.000 1.165
82 246.00 1500.01 155 228 2.050 10000.000 0.000 1.165
83 249.00 1500.01 145 218 2.050 10000.000 0.000 1.165
84 252.00 1500.01 157 244 2.050 10000.000 0.000 1.165
85 255.00 1500.01 170 252 2.050 10000.000 0.000 1.165
86 258.00 1500.01 161 244 2.050 10000.000 0.000 1.165
87 261.00 1500.01 163 207 2.050 10000.000 0.000 1.165
88 264.00 1500.01 164 247 2.050 10000.000 0.000 1.165
89 267.00 1500.01 146 232 2.050 10000.000 0.000 1.165
90 270.00 1500.01 171 258 2.050 10000.000 0.000 1.165
91 273.00 1500.01 143 253 2.050 10000.000 0.000 1.165
92 276.00 1500.01 159 232 2.050 10000.000 0.000 1.165
93 279.00 1500.01 167 232 2.050 10000.000 0.000 1.165
94 282.00 1500.01 172 264 2.050 10000.000 0.000 1.165
95 285.00 1500.01 151 240 2.050 10000.000 0.000 1.165
96 288.00 1500.01 147 226 2.050 10000.000 0.000 1.165
97 291.00 1500.01 148 238 2.050 10000.000 0.000 1.165
98 294.00 1500.01 171 242 2.050 10000.000 0.000 1.165
99 297.00 1500.01 128 230 2.050 10000.000 0.000 1.165
100 300.00 1500.01 155 251 2.050 10000.000 0.000 1.165
101 303.00 1500.01 157 245 2.050 10000.000 0.000 1.165
102 306.00 1500.01 155 222 2.050 10000.000 0.000 1.165
103 309.00 1500.01 182 219 2.050 10000.000 0.000 1.165
104 312.00 1500.01 161 216 2.050 10000.000 0.000 1.165
105 315.00 1500.01 157 241 2.050 10000.000 0.000 1.165
106 318.00 1500.01 188 233 2.050 10000.000 0.000 1.165
107 321.00 1500.01 165 248 2.050 10000.000 0.000 1.165
108 324.00 1500.01 163 248 2.050 10000.000 0.000 1.165
109 327.00 1500.01 156 240 2.050 10000.000 0.000 1.165
110 330.00 1500.01 167 210 2.050 10000.000 0.000 1.165
111 333.00 1500.01 166 240 2.050 10000.000 0.000 1.165
112 336.00 1500.01 153 233 2.050 10000.000 0.000 1.165
113 339.00 1500.01 162 214 2.050 10000.000 0.000 1.165
114 342.00 1500.01 158 226 2.050 10000.000 0.000 1.165
115 345.00 1500.01 169 259 2.050 10000.000 0.000 1.165
116 348.00 1500.01 174 249 2.050 10000.000 0.000 1.165
117 351.00 1500.01 147 237 2.050 10000.000 0.000 1.165
118 354.00 1500.01 175 224 2.050 10000.000 0.000 1.165
119 357.00 1500.01 161 230 2.050 10000.000 0.000 1.165
120 360.00 1500.01 157 225 2.050 10000.000 0.000 1.165
121 363.00 1500.01 157 206 2.050 10000.000 0.000 1.165
122 366.00 1500.01 174 215 2.050 10000.000 0.000 1.165
123 369.00 1500.01 167 233 2.050 10000.000 0.000 1.165
124 372.00 1500.01 156 255 2.050 10000.000 0.000 1.165
125 375.00 1500.01 159 248 2.050 10000.000 0.000 1.165
126 378.00 1500.01 140 223 2.050 10000.000 0.000 1.165
127 381.00 1500.01 165 240 2.050 10000.000 0.000 1.165
128 384.00 1500.01 168 233 2.050 10000.000 0.000 1.165
129 387.00 1500.01 160 249 2.050 10000.000 0.000 1.165
130 390.00 1500.01 154 227 2.050 10000.000 0.000 1.165
131 393.00 1500.01 163 232 2.050 10000.000 0.000 1.165
132 396.00 1500.01 168 227 2.050 10000.000 0.000 1.165
133 399.00 1500.01 161 252 2.050 10000.000 0.000 1.165
134 402.00 1500.01 179 230 2.050 10000.000 0.000 1.165
