# BinNR microsec tot-time (s)  O-Beam AUX Ampl(V) f(Hz) phase(deg) chi(pos)
0 0.00 1500.00 197 586 2.050 10000.000 0.000 0.165
1 3.00 1500.00 374 1135 2.050 10000.000 0.000 0.165
2 6.00 1500.00 396 1192 2.050 10000.000 0.000 0.165
3 9.00 1500.00 428 1175 2.050 10000.000 0.000 0.165
4 12.00 1500.00 389 1165 2.050 10000.000 0.000 0.165
5 15.00 1500.00 370 1146 2.050 10000.000 0.000 0.165
6 18.00 1500.00 422 1190 2.050 10000.000 0.000 0.165
7 21.00 1500.00 403 1148 2.050 10000.000 0.000 0.165
8 24.00 1500.00 427 1154 2.050 10000.000 0.000 0.165
9 27.00 1500.00 380 1203 2.050 10000.000 0.000 0.165
10 30.00 1500.00 375 1196 2.050 10000.000 0.000 0.165
11 33.00 1500.00 390 1197 2.050 10000.000 0.000 0.165
12 36.00 1500.00 416 1184 2.050 10000.000 0.000 0.165
13 39.00 1500.00 382 1145 2.050 10000.000 0.000 0.165
14 42.00 1500.00 422 1156 2.050 10000.000 0.000 0.165
15 45.00 1500.00 382 1162 2.050 10000.000 0.000 0.165
16 48.00 1500.00 393 1166 2.050 10000.000 0.000 0.165
17 51.00 1500.00 429 1078 2.050 10000.000 0.000 0.165
18 54.00 1500.00 436 1161 2.050 10000.000 0.000 0.165
19 57.00 1500.00 389 1175 2.050 10000.000 0.000 0.165
20 60.00 1500.00 413 1193 2.050 10000.000 0.000 0.165
21 63.00 1500.00 345 1114 2.050 10000.000 0.000 0.165
22 66.00 1500.00 383 1296 2.050 10000.000 0.000 0.165
23 69.00 1500.00 381 1208 2.050 10000.000 0.000 0.165
24 72.00 1500.00 402 1182 2.050 10000.000 0.000 0.165
25 75.00 1500.00 431 1177 2.050 10000.000 0.000 0.165
26 78.00 1500.00 417 1184 2.050 10000.000 0.000 0.165
27 81.00 1500.00 369 1180 2.050 10000.000 0.000 0.165
28 84.00 1500.00 421 1185 2.050 10000.000 0.000 0.165
29 87.00 1500.00 365 1216 2.050 10000.000 0.000 0.165
30 90.00 1500.00 427 1122 2.050 10000.000 0.000 0.165
31 93.00 1500.00 383 1224 2.050 10000.000 0.000 0.165
32 96.00 1500.00 419 1230 2.050 10000.000 0.000 0.165
33 99.00 1500.00 394 1199 2.050 10000.000 0.000 0.165
34 102.00 1500.00 421 1155 2.050 10000.000 0.000 0.165
35 105.00 1500.00 385 1136 2.050 10000.000 0.000 0.165
36 108.00 1500.00 387 1157 2.050 10000.000 0.000 0.165
37 111.00 1500.00 395 1160 2.050 10000.000 0.000 0.165
38 114.00 1500.00 377 1183 2.050 10000.000 0.000 0.165
39 117.00 1500.00 407 1186 2.050 10000.000 0.000 0.165
40 120.00 1500.00 353 1230 2.050 10000.000 0.000 0.165
41 123.00 1500.00 380 1168 2.050 10000.000 0.000 0.165
42 126.00 1500.00 401 1269 2.050 10000.000 0.000 0.165
43 129.00 1500.00 421 1174 2.050 10000.000 0.000 0.165
44 132.00 1500.00 409 1171 2.050 10000.000 0.000 0.165
45 135.00 1500.00 420 1230 2.050 10000.000 0.000 0.165
46 138.00 1500.00 396 1191 2.050 10000.000 0.000 0.165
47 141.00 1500.00 387 1159 2.050 10000.000 0.000 0.165
48 144.00 1500.00 411 1202 2.050 10000.000 0.000 0.165
49 147.00 1500.00 337 1176 2.050 10000.000 0.000 0.165
50 150.00 1500.00 414 1184 2.050 10000.000 0.000 0.165
51 153.00 1500.00 416 1153 2.050 10000.000 0.000 0.165
52 156.00 1500.00 386 1215 2.050 10000.000 0.000 0.165
53 159.00 1500.00 409 1173 2.050 10000.000 0.000 0.165
54 162.00 1500.00 403 1166 2.050 10000.000 0.000 0.165
55 165.00 1500.00 373 1164 2.050 10000.000 0.000 0.165
56 168.00 1500.00 382 1166 2.050 10000.000 0.000 0.165
57 171.00 1500.00 385 1180 2.050 10000.000 0.000 0.165
58 174.00 1500.00 380 1178 2.050 10000.000 0.000 0.165
59 177.00 1500.00 419 1187 2.050 10000.000 0.000 0.165
60 180.00 1500.00 409 1218 2.050 10000.000 0.000 0.165
61 183.00 1500.00 376 1129 2.050 10000.000 0.000 0.165
62 186.00 1500.00 395 1199 2.050 10000.000 0.000 0.165
63 189.00 1500.00 383 1177 2.050 10000.000 0.000 0.165
64 192.00 1500.00 428 1155 2.050 10000.000 0.000 0.165
65 195.00 1500.00 397 1185 2.050 10000.000 0.000 0.165
66 198.00 1500.00 437 1133 2.050 10000.000 0.000 0.165
67 201.00 1500.00 396 1151 2.050 10000.000 0.000 0.165
68 204.00 1500.00 397 1175 2.050 10000.000 0.000 0.165
69 207.00 1500.00 389 1166 2.050 10000.000 0.000 0.165
70 210.00 1500.00 405 1171 2.050 10000.000 0.000 0.165
71 213.00 1500.00 409 1137 2.050 10000.000 0.000 0.165
72 216.00 1500.00 386 1185 2.050 10000.000 0.000 0.165
73 219.00 1500.00 396 1113 2.050 10000.000 0.000 0.165
74 222.00 1500.00 383 1164 2.050 10000.000 0.000 0.165
75 225.00 1500.00 399 1187 2.050 10000.000 0.000 0.165
76 228.00 1500.00 411 1131 2.050 10000.000 0.000 0.165
77 231.00 1500.00 398 1150 2.050 10000.000 0.000 0.165
78 234.00 1500.00 429 1214 2.050 10000.000 0.000 0.165
79 237.00 1500.00 409 1184 2.050 10000.000 0.000 0.165
80 240.00 1500.00 418 1171 2.050 10000.000 0.000 0.165
81 243.00 1500.00 380 1192 2.050 10000.000 0.000 0.165
82 246.00 1500.00 409 1189 2.050 10000.000 0.000 0.165
83 249.00 1500.00 381 1131 2.050 10000.000 0.000 0.165
84 252.00 1500.00 409 1182 2.050 10000.000 0.000 0.165
85 255.00 1500.00 401 1155 2.050 10000.000 0.000 0.165
86 258.00 1500.00 393 1161 2.050 10000.000 0.000 0.165
87 261.00 1500.00 355 1168 2.050 10000.000 0.000 0.165
88 264.00 1500.00 399 1214 2.050 10000.000 0.000 0.165
89 267.00 1500.00 379 1170 2.050 10000.000 0.000 0.165
90 270.00 1500.00 444 1214 2.050 10000.000 0.000 0.165
91 273.00 1500.00 365 1176 2.050 10000.000 0.000 0.165
92 276.00 1500.00 381 1224 2.050 10000.000 0.000 0.165
93 279.00 1500.00 397 1201 2.050 10000.000 0.000 0.165
94 282.00 1500.00 433 1245 2.050 10000.000 0.000 0.165
95 285.00 1500.00 369 1224 2.050 10000.000 0.000 0.165
96 288.00 1500.00 403 1199 2.050 10000.000 0.000 0.165
97 291.00 1500.00 402 1169 2.050 10000.000 0.000 0.165
98 294.00 1500.00 431 1158 2.050 10000.000 0.000 0.165
99 297.00 1500.00 410 1182 2.050 10000.000 0.000 0.165
100 300.00 1500.00 428 1147 2.050 10000.000 0.000 0.165
101 303.00 1500.00 374 1193 2.050 10000.000 0.000 0.165
102 306.00 1500.00 363 1154 2.050 10000.000 0.000 0.165
103 309.00 1500.00 412 1159 2.050 10000.000 0.000 0.165
104 312.00 1500.00 364 1190 2.050 10000.000 0.000 0.165
105 315.00 1500.00 381 1189 2.050 10000.000 0.000 0.165
106 318.00 1500.00 389 1214 2.050 10000.000 0.000 0.165
107 321.00 1500.00 360 1141 2.050 10000.000 0.000 0.165
108 324.00 1500.00 426 1196 2.050 10000.000 0.000 0.165
109 327.00 1500.00 387 1208 2.050 10000.000 0.000 0.165
110 330.00 1500.00 409 1225 2.050 10000.000 0.000 0.165
111 333.00 1500.00 403 1138 2.050 10000.000 0.000 0.165
112 336.00 1500.00 394 1239 2.050 10000.000 0.000 0.165
113 339.00 1500.00 392 1170 2.050 10000.000 0.000 0.165
114 342.00 1500.00 414 1149 2.050 10000.000 0.000 0.165
115 345.00 1500.00 382 1255 2.050 10000.000 0.000 0.165
116 348.00 1500.00 383 1168 2.050 10000.000 0.000 0.165
117 351.00 1500.00 402 1163 2.050 10000.000 0.000 0.165
118 354.00 1500.00 402 1235 2.050 10000.000 0.000 0.165
119 357.00 1500.00 383 1178 2.050 10000.000 0.000 0.165
120 360.00 1500.00 418 1141 2.050 10000.000 0.000 0.165
121 363.00 1500.00 388 1208 2.050 10000.000 0.000 0.165
122 366.00 1500.00 410 1209 2.050 10000.000 0.000 0.165
123 369.00 1500.00 369 1198 2.050 10000.000 0.000 0.165
124 372.00 1500.00 399 1172 2.050 10000.000 0.000 0.165
125 375.00 1500.00 346 1183 2.050 10000.000 0.000 0.165
126 378.00 1500.00 383 1203 2.050 10000.000 0.000 0.165
127 381.00 1500.00 378 1172 2.050 10000.000 0.000 0.165
128 384.00 1500.00 368 1250 2.050 10000.000 0.000 0.165
129 387.00 1500.00 390 1126 2.050 10000.000 0.000 0.165
130 390.00 1500.00 357 1143 2.050 10000.000 0.000 0.165
131 393.00 1500.00 422 1145 2.050 10000.000 0.000 0.165
132 396.00 1500.00 415 1166 2.050 10000.000 0.000 0.165
133 399.00 1500.00 368 1148 2.050 10000.000 0.000 0.165
134 402.00 1500.00 378 1201 2.050 10000.000 0.000 0.165
