# BinNR microsec tot-time (s)  O-Beam AUX Ampl(V) f(Hz) phase(deg) chi(pos)
0 0.00 1200.01 122 289 2.000 10000.000 0.000 1.505
1 3.00 1200.01 254 630 2.000 10000.000 0.000 1.505
2 6.00 1200.01 245 733 2.000 10000.000 0.000 1.505
3 9.00 1200.01 286 736 2.000 10000.000 0.000 1.505
4 12.00 1200.01 248 726 2.000 10000.000 0.000 1.505
5 15.00 1200.01 267 746 2.000 10000.000 0.000 1.505
6 18.00 1200.01 281 775 2.000 10000.000 0.000 1.505
7 21.00 1200.01 274 753 2.000 10000.000 0.000 1.505
8 24.00 1200.01 270 781 2.000 10000.000 0.000 1.505
9 27.00 1200.01 240 738 2.000 10000.000 0.000 1.505
10 30.00 1200.01 253 666 2.000 10000.000 0.000 1.505
11 33.00 1200.01 238 549 2.000 10000.000 0.000 1.505
12 36.00 1200.01 244 520 2.000 10000.000 0.000 1.505
13 39.00 1200.01 248 462 2.000 10000.000 0.000 1.505
14 42.00 1200.01 171 461 2.000 10000.000 0.000 1.505
15 45.00 1200.01 184 357 2.000 10000.000 0.000 1.505
16 48.00 1200.01 181 362 2.000 10000.000 0.000 1.505
17 51.00 1200.01 175 287 2.000 10000.000 0.000 1.505
18 54.00 1200.01 173 310 2.000 10000.000 0.000 1.505
19 57.00 1200.01 167 282 2.000 10000.000 0.000 1.505
20 60.00 1200.01 179 362 2.000 10000.000 0.000 1.505
21 63.00 1200.01 161 328 2.000 10000.000 0.000 1.505
22 66.00 1200.01 169 317 2.000 10000.000 0.000 1.505
23 69.00 1200.01 174 340 2.000 10000.000 0.000 1.505
24 72.00 1200.01 187 302 2.000 10000.000 0.000 1.505
25 75.00 1200.01 165 305 2.000 10000.000 0.000 1.505
26 78.00 1200.01 187 297 2.000 10000.000 0.000 1.505
27 81.00 1200.01 180 300 2.000 10000.000 0.000 1.505
28 84.00 1200.01 196 320 2.000 10000.000 0.000 1.505
29 87.00 1200.01 204 323 2.000 10000.000 0.000 1.505
30 90.00 1200.01 200 390 2.000 10000.000 0.000 1.505
31 93.00 1200.01 189 447 2.000 10000.000 0.000 1.505
32 96.00 1200.01 225 471 2.000 10000.000 0.000 1.505
33 99.00 1200.01 213 559 2.000 10000.000 0.000 1.505
34 102.00 1200.01 218 621 2.000 10000.000 0.000 1.505
35 105.00 1200.01 239 661 2.000 10000.000 0.000 1.505
36 108.00 1200.01 269 745 2.000 10000.000 0.000 1.505
37 111.00 1200.01 271 788 2.000 10000.000 0.000 1.505
38 114.00 1200.01 234 796 2.000 10000.000 0.000 1.505
39 117.00 1200.01 241 872 2.000 10000.000 0.000 1.505
40 120.00 1200.01 264 821 2.000 10000.000 0.000 1.505
41 123.00 1200.01 259 806 2.000 10000.000 0.000 1.505
42 126.00 1200.01 241 800 2.000 10000.000 0.000 1.505
43 129.00 1200.01 248 702 2.000 10000.000 0.000 1.505
44 132.00 1200.01 241 592 2.000 10000.000 0.000 1.505
45 135.00 1200.01 200 533 2.000 10000.000 0.000 1.505
46 138.00 1200.01 241 486 2.000 10000.000 0.000 1.505
47 141.00 1200.01 191 460 2.000 10000.000 0.000 1.505
48 144.00 1200.01 188 410 2.000 10000.000 0.000 1.505
49 147.00 1200.01 190 339 2.000 10000.000 0.000 1.505
50 150.00 1200.01 211 334 2.000 10000.000 0.000 1.505
51 153.00 1200.01 172 309 2.000 10000.000 0.000 1.505
52 156.00 1200.01 154 311 2.000 10000.000 0.000 1.505
53 159.00 1200.01 160 268 2.000 10000.000 0.000 1.505
54 162.00 1200.01 163 340 2.000 10000.000 0.000 1.505
55 165.00 1200.01 173 336 2.000 10000.000 0.000 1.505
56 168.00 1200.01 198 322 2.000 10000.000 0.000 1.505
57 171.00 1200.01 193 369 2.000 10000.000 0.000 1.505
58 174.00 1200.01 162 284 2.000 10000.000 0.000 1.505
59 177.00 1200.01 179 289 2.000 10000.000 0.000 1.505
60 180.00 1200.01 182 301 2.000 10000.000 0.000 1.505
61 183.00 1200.01 166 317 2.000 10000.000 0.000 1.505
62 186.00 1200.01 192 393 2.000 10000.000 0.000 1.505
63 189.00 1200.01 201 352 2.000 10000.000 0.000 1.505
64 192.00 1200.01 210 418 2.000 10000.000 0.000 1.505
65 195.00 1200.01 196 467 2.000 10000.000 0.000 1.505
66 198.00 1200.01 223 539 2.000 10000.000 0.000 1.505
67 201.00 1200.01 236 575 2.000 10000.000 0.000 1.505
68 204.00 1200.01 244 653 2.000 10000.000 0.000 1.505
69 207.00 1200.01 260 727 2.000 10000.000 0.000 1.505
70 210.00 1200.01 259 753 2.000 10000.000 0.000 1.505
71 213.00 1200.01 265 757 2.000 10000.000 0.000 1.505
72 216.00 1200.01 282 790 2.000 10000.000 0.000 1.505
73 219.00 1200.01 285 812 2.000 10000.000 0.000 1.505
74 222.00 1200.01 287 753 2.000 10000.000 0.000 1.505
75 225.00 1200.01 278 754 2.000 10000.000 0.000 1.505
76 228.00 1200.01 263 693 2.000 10000.000 0.000 1.505
77 231.00 1200.01 229 697 2.000 10000.000 0.000 1.505
78 234.00 1200.01 259 601 2.000 10000.000 0.000 1.505
79 237.00 1200.01 232 476 2.000 10000.000 0.000 1.505
80 240.00 1200.01 177 477 2.000 10000.000 0.000 1.505
81 243.00 1200.01 187 401 2.000 10000.000 0.000 1.505
82 246.00 1200.01 193 337 2.000 10000.000 0.000 1.505
83 249.00 1200.01 149 332 2.000 10000.000 0.000 1.505
84 252.00 1200.01 188 321 2.000 10000.000 0.000 1.505
85 255.00 1200.01 170 334 2.000 10000.000 0.000 1.505
86 258.00 1200.01 175 330 2.000 10000.000 0.000 1.505
87 261.00 1200.01 173 355 2.000 10000.000 0.000 1.505
88 264.00 1200.01 182 334 2.000 10000.000 0.000 1.505
89 267.00 1200.01 164 331 2.000 10000.000 0.000 1.505
90 270.00 1200.01 186 323 2.000 10000.000 0.000 1.505
91 273.00 1200.01 184 304 2.000 10000.000 0.000 1.505
92 276.00 1200.01 204 309 2.000 10000.000 0.000 1.505
93 279.00 1200.01 196 294 2.000 10000.000 0.000 1.505
94 282.00 1200.01 180 278 2.000 10000.000 0.000 1.505
95 285.00 1200.01 173 332 2.000 10000.000 0.000 1.505
96 288.00 1200.01 181 339 2.000 10000.000 0.000 1.505
97 291.00 1200.01 161 360 2.000 10000.000 0.000 1.505
98 294.00 1200.01 215 442 2.000 10000.000 0.000 1.505
99 297.00 1200.01 205 476 2.000 10000.000 0.000 1.505
100 300.00 1200.01 179 451 2.000 10000.000 0.000 1.505
