# BinNR microsec tot-time (s)  O-Beam AUX Ampl(V) f(Hz) phase(deg) chi(pos)
0 0.00 1200.01 94 160 2.000 10000.000 0.000 -1.296
1 3.00 1200.01 255 289 2.000 10000.000 0.000 -1.296
2 6.00 1200.01 233 274 2.000 10000.000 0.000 -1.296
3 9.00 1200.01 219 295 2.000 10000.000 0.000 -1.296
4 12.00 1200.01 220 248 2.000 10000.000 0.000 -1.296
5 15.00 1200.01 177 259 2.000 10000.000 0.000 -1.296
6 18.00 1200.01 179 262 2.000 10000.000 0.000 -1.296
7 21.00 1200.01 162 248 2.000 10000.000 0.000 -1.296
8 24.00 1200.01 176 268 2.000 10000.000 0.000 -1.296
9 27.00 1200.01 179 291 2.000 10000.000 0.000 -1.296
10 30.00 1200.01 180 287 2.000 10000.000 0.000 -1.296
11 33.00 1200.01 197 359 2.000 10000.000 0.000 -1.296
12 36.00 1200.01 237 368 2.000 10000.000 0.000 -1.296
13 39.00 1200.01 207 417 2.000 10000.000 0.000 -1.296
14 42.00 1200.01 219 493 2.000 10000.000 0.000 -1.296
15 45.00 1200.01 274 574 2.000 10000.000 0.000 -1.296
16 48.00 1200.01 290 688 2.000 10000.000 0.000 -1.296
17 51.00 1200.01 311 751 2.000 10000.000 0.000 -1.296
18 54.00 1200.01 383 879 2.000 10000.000 0.000 -1.296
19 57.00 1200.01 354 899 2.000 10000.000 0.000 -1.296
20 60.00 1200.01 377 938 2.000 10000.000 0.000 -1.296
21 63.00 1200.01 351 948 2.000 10000.000 0.000 -1.296
22 66.00 1200.01 352 1016 2.000 10000.000 0.000 -1.296
23 69.00 1200.01 376 1000 2.000 10000.000 0.000 -1.296
24 72.00 1200.01 390 1029 2.000 10000.000 0.000 -1.296
25 75.00 1200.01 372 985 2.000 10000.000 0.000 -1.296
26 78.00 1200.01 343 961 2.000 10000.000 0.000 -1.296
27 81.00 1200.01 341 881 2.000 10000.000 0.000 -1.296
28 84.00 1200.01 295 837 2.000 10000.000 0.000 -1.296
29 87.00 1200.01 302 700 2.000 10000.000 0.000 -1.296
30 90.00 1200.01 296 625 2.000 10000.000 0.000 -1.296
31 93.00 1200.01 288 525 2.000 10000.000 0.000 -1.296
32 96.00 1200.01 259 475 2.000 10000.000 0.000 -1.296
33 99.00 1200.01 249 343 2.000 10000.000 0.000 -1.296
34 102.00 1200.01 224 332 2.000 10000.000 0.000 -1.296
35 105.00 1200.01 220 306 2.000 10000.000 0.000 -1.296
36 108.00 1200.01 228 254 2.000 10000.000 0.000 -1.296
37 111.00 1200.01 197 269 2.000 10000.000 0.000 -1.296
38 114.00 1200.01 203 222 2.000 10000.000 0.000 -1.296
39 117.00 1200.01 178 216 2.000 10000.000 0.000 -1.296
40 120.00 1200.01 196 240 2.000 10000.000 0.000 -1.296
41 123.00 1200.01 197 261 2.000 10000.000 0.000 -1.296
42 126.00 1200.01 179 258 2.000 10000.000 0.000 -1.296
43 129.00 1200.01 179 281 2.000 10000.000 0.000 -1.296
44 132.00 1200.01 204 305 2.000 10000.000 0.000 -1.296
45 135.00 1200.01 201 395 2.000 10000.000 0.000 -1.296
46 138.00 1200.01 218 445 2.000 10000.000 0.000 -1.296
47 141.00 1200.01 237 533 2.000 10000.000 0.000 -1.296
48 144.00 1200.01 255 636 2.000 10000.000 0.000 -1.296
49 147.00 1200.01 297 643 2.000 10000.000 0.000 -1.296
50 150.00 1200.01 298 812 2.000 10000.000 0.000 -1.296
51 153.00 1200.01 305 791 2.000 10000.000 0.000 -1.296
52 156.00 1200.01 374 900 2.000 10000.000 0.000 -1.296
53 159.00 1200.01 341 918 2.000 10000.000 0.000 -1.296
54 162.00 1200.01 404 1047 2.000 10000.000 0.000 -1.296
55 165.00 1200.01 351 1052 2.000 10000.000 0.000 -1.296
56 168.00 1200.01 374 1019 2.000 10000.000 0.000 -1.296
57 171.00 1200.01 330 978 2.000 10000.000 0.000 -1.296
58 174.00 1200.01 362 949 2.000 10000.000 0.000 -1.296
59 177.00 1200.01 378 938 2.000 10000.000 0.000 -1.296
60 180.00 1200.01 390 888 2.000 10000.000 0.000 -1.296
61 183.00 1200.01 358 835 2.000 10000.000 0.000 -1.296
62 186.00 1200.01 314 691 2.000 10000.000 0.000 -1.296
63 189.00 1200.01 320 620 2.000 10000.000 0.000 -1.296
64 192.00 1200.01 294 582 2.000 10000.000 0.000 -1.296
65 195.00 1200.01 258 461 2.000 10000.000 0.000 -1.296
66 198.00 1200.01 271 382 2.000 10000.000 0.000 -1.296
67 201.00 1200.01 234 352 2.000 10000.000 0.000 -1.296
68 204.00 1200.01 225 314 2.000 10000.000 0.000 -1.296
69 207.00 1200.01 228 280 2.000 10000.000 0.000 -1.296
70 210.00 1200.01 220 273 2.000 10000.000 0.000 -1.296
71 213.00 1200.01 194 243 2.000 10000.000 0.000 -1.296
72 216.00 1200.01 181 268 2.000 10000.000 0.000 -1.296
73 219.00 1200.01 178 265 2.000 10000.000 0.000 -1.296
74 222.00 1200.01 177 238 2.000 10000.000 0.000 -1.296
75 225.00 1200.01 201 248 2.000 10000.000 0.000 -1.296
76 228.00 1200.01 180 319 2.000 10000.000 0.000 -1.296
77 231.00 1200.01 218 295 2.000 10000.000 0.000 -1.296
78 234.00 1200.01 185 334 2.000 10000.000 0.000 -1.296
79 237.00 1200.01 184 394 2.000 10000.000 0.000 -1.296
80 240.00 1200.01 226 506 2.000 10000.000 0.000 -1.296
81 243.00 1200.01 244 513 2.000 10000.000 0.000 -1.296
82 246.00 1200.01 294 692 2.000 10000.000 0.000 -1.296
83 249.00 1200.01 325 710 2.000 10000.000 0.000 -1.296
84 252.00 1200.01 337 838 2.000 10000.000 0.000 -1.296
85 255.00 1200.01 329 950 2.000 10000.000 0.000 -1.296
86 258.00 1200.01 362 883 2.000 10000.000 0.000 -1.296
87 261.00 1200.01 365 950 2.000 10000.000 0.000 -1.296
88 264.00 1200.01 354 1041 2.000 10000.000 0.000 -1.296
89 267.00 1200.01 379 1026 2.000 10000.000 0.000 -1.296
90 270.00 1200.01 356 1002 2.000 10000.000 0.000 -1.296
91 273.00 1200.01 387 1020 2.000 10000.000 0.000 -1.296
92 276.00 1200.01 377 976 2.000 10000.000 0.000 -1.296
93 279.00 1200.01 345 933 2.000 10000.000 0.000 -1.296
94 282.00 1200.01 357 927 2.000 10000.000 0.000 -1.296
95 285.00 1200.01 329 801 2.000 10000.000 0.000 -1.296
96 288.00 1200.01 321 732 2.000 10000.000 0.000 -1.296
97 291.00 1200.01 306 596 2.000 10000.000 0.000 -1.296
98 294.00 1200.01 272 502 2.000 10000.000 0.000 -1.296
99 297.00 1200.01 238 452 2.000 10000.000 0.000 -1.296
100 300.00 1200.01 226 325 2.000 10000.000 0.000 -1.296
