# BinNR microsec tot-time (s)  O-Beam AUX Ampl(V) f(Hz) phase(deg) chi(pos)
0 0.00 1200.02 135 253 2.000 10000.000 0.000 0.286
1 3.00 1200.02 240 450 2.000 10000.000 0.000 0.286
2 6.00 1200.02 267 415 2.000 10000.000 0.000 0.286
3 9.00 1200.02 237 396 2.000 10000.000 0.000 0.286
4 12.00 1200.02 225 409 2.000 10000.000 0.000 0.286
5 15.00 1200.02 226 366 2.000 10000.000 0.000 0.286
6 18.00 1200.02 192 376 2.000 10000.000 0.000 0.286
7 21.00 1200.02 241 355 2.000 10000.000 0.000 0.286
8 24.00 1200.02 216 371 2.000 10000.000 0.000 0.286
9 27.00 1200.02 242 391 2.000 10000.000 0.000 0.286
10 30.00 1200.02 229 465 2.000 10000.000 0.000 0.286
11 33.00 1200.02 247 432 2.000 10000.000 0.000 0.286
12 36.00 1200.02 260 499 2.000 10000.000 0.000 0.286
13 39.00 1200.02 285 586 2.000 10000.000 0.000 0.286
14 42.00 1200.02 283 616 2.000 10000.000 0.000 0.286
15 45.00 1200.02 271 690 2.000 10000.000 0.000 0.286
16 48.00 1200.02 316 757 2.000 10000.000 0.000 0.286
17 51.00 1200.02 314 770 2.000 10000.000 0.000 0.286
18 54.00 1200.02 311 817 2.000 10000.000 0.000 0.286
19 57.00 1200.02 345 806 2.000 10000.000 0.000 0.286
20 60.00 1200.02 333 816 2.000 10000.000 0.000 0.286
21 63.00 1200.02 355 812 2.000 10000.000 0.000 0.286
22 66.00 1200.02 313 876 2.000 10000.000 0.000 0.286
23 69.00 1200.02 327 793 2.000 10000.000 0.000 0.286
24 72.00 1200.02 339 842 2.000 10000.000 0.000 0.286
25 75.00 1200.02 332 852 2.000 10000.000 0.000 0.286
26 78.00 1200.02 318 843 2.000 10000.000 0.000 0.286
27 81.00 1200.02 314 798 2.000 10000.000 0.000 0.286
28 84.00 1200.02 329 762 2.000 10000.000 0.000 0.286
29 87.00 1200.02 323 735 2.000 10000.000 0.000 0.286
30 90.00 1200.02 316 664 2.000 10000.000 0.000 0.286
31 93.00 1200.02 303 597 2.000 10000.000 0.000 0.286
32 96.00 1200.02 290 558 2.000 10000.000 0.000 0.286
33 99.00 1200.02 285 512 2.000 10000.000 0.000 0.286
34 102.00 1200.02 249 446 2.000 10000.000 0.000 0.286
35 105.00 1200.02 246 411 2.000 10000.000 0.000 0.286
36 108.00 1200.02 237 378 2.000 10000.000 0.000 0.286
37 111.00 1200.02 236 382 2.000 10000.000 0.000 0.286
38 114.00 1200.02 231 350 2.000 10000.000 0.000 0.286
39 117.00 1200.02 221 337 2.000 10000.000 0.000 0.286
40 120.00 1200.02 269 368 2.000 10000.000 0.000 0.286
41 123.00 1200.02 238 379 2.000 10000.000 0.000 0.286
42 126.00 1200.02 258 418 2.000 10000.000 0.000 0.286
43 129.00 1200.02 260 430 2.000 10000.000 0.000 0.286
44 132.00 1200.02 271 449 2.000 10000.000 0.000 0.286
45 135.00 1200.02 255 480 2.000 10000.000 0.000 0.286
46 138.00 1200.02 275 533 2.000 10000.000 0.000 0.286
47 141.00 1200.02 293 587 2.000 10000.000 0.000 0.286
48 144.00 1200.02 287 696 2.000 10000.000 0.000 0.286
49 147.00 1200.02 336 709 2.000 10000.000 0.000 0.286
50 150.00 1200.02 324 737 2.000 10000.000 0.000 0.286
51 153.00 1200.02 336 742 2.000 10000.000 0.000 0.286
52 156.00 1200.02 334 795 2.000 10000.000 0.000 0.286
53 159.00 1200.02 326 783 2.000 10000.000 0.000 0.286
54 162.00 1200.02 337 831 2.000 10000.000 0.000 0.286
55 165.00 1200.02 324 846 2.000 10000.000 0.000 0.286
56 168.00 1200.02 349 882 2.000 10000.000 0.000 0.286
57 171.00 1200.02 341 817 2.000 10000.000 0.000 0.286
58 174.00 1200.02 350 850 2.000 10000.000 0.000 0.286
59 177.00 1200.02 322 853 2.000 10000.000 0.000 0.286
60 180.00 1200.02 335 828 2.000 10000.000 0.000 0.286
61 183.00 1200.02 306 769 2.000 10000.000 0.000 0.286
62 186.00 1200.02 334 688 2.000 10000.000 0.000 0.286
63 189.00 1200.02 293 698 2.000 10000.000 0.000 0.286
64 192.00 1200.02 309 664 2.000 10000.000 0.000 0.286
65 195.00 1200.02 271 577 2.000 10000.000 0.000 0.286
66 198.00 1200.02 311 548 2.000 10000.000 0.000 0.286
67 201.00 1200.02 298 520 2.000 10000.000 0.000 0.286
68 204.00 1200.02 241 488 2.000 10000.000 0.000 0.286
69 207.00 1200.02 235 380 2.000 10000.000 0.000 0.286
70 210.00 1200.02 270 407 2.000 10000.000 0.000 0.286
71 213.00 1200.02 258 353 2.000 10000.000 0.000 0.286
72 216.00 1200.02 224 340 2.000 10000.000 0.000 0.286
73 219.00 1200.02 229 333 2.000 10000.000 0.000 0.286
74 222.00 1200.02 235 378 2.000 10000.000 0.000 0.286
75 225.00 1200.02 225 384 2.000 10000.000 0.000 0.286
76 228.00 1200.02 260 358 2.000 10000.000 0.000 0.286
77 231.00 1200.02 266 427 2.000 10000.000 0.000 0.286
78 234.00 1200.02 257 510 2.000 10000.000 0.000 0.286
79 237.00 1200.02 253 522 2.000 10000.000 0.000 0.286
80 240.00 1200.02 271 589 2.000 10000.000 0.000 0.286
81 243.00 1200.02 310 639 2.000 10000.000 0.000 0.286
82 246.00 1200.02 331 719 2.000 10000.000 0.000 0.286
83 249.00 1200.02 317 737 2.000 10000.000 0.000 0.286
84 252.00 1200.02 304 777 2.000 10000.000 0.000 0.286
85 255.00 1200.02 360 788 2.000 10000.000 0.000 0.286
86 258.00 1200.02 323 798 2.000 10000.000 0.000 0.286
87 261.00 1200.02 352 840 2.000 10000.000 0.000 0.286
88 264.00 1200.02 342 900 2.000 10000.000 0.000 0.286
89 267.00 1200.02 292 838 2.000 10000.000 0.000 0.286
90 270.00 1200.02 317 800 2.000 10000.000 0.000 0.286
91 273.00 1200.02 333 819 2.000 10000.000 0.000 0.286
92 276.00 1200.02 313 815 2.000 10000.000 0.000 0.286
93 279.00 1200.02 353 771 2.000 10000.000 0.000 0.286
94 282.00 1200.02 324 752 2.000 10000.000 0.000 0.286
95 285.00 1200.02 286 779 2.000 10000.000 0.000 0.286
96 288.00 1200.02 292 701 2.000 10000.000 0.000 0.286
97 291.00 1200.02 308 665 2.000 10000.000 0.000 0.286
98 294.00 1200.02 308 539 2.000 10000.000 0.000 0.286
99 297.00 1200.02 258 547 2.000 10000.000 0.000 0.286
100 300.00 1200.02 251 434 2.000 10000.000 0.000 0.286
