# BinNR microsec tot-time (s)  O-Beam AUX Ampl(V) f(Hz) phase(deg) chi(pos)
0 0.00 1200.03 175 270 2.000 10000.000 0.000 -1.505
1 3.00 1200.03 322 524 2.000 10000.000 0.000 -1.505
2 6.00 1200.03 276 517 2.000 10000.000 0.000 -1.505
3 9.00 1200.03 268 437 2.000 10000.000 0.000 -1.505
4 12.00 1200.03 276 448 2.000 10000.000 0.000 -1.505
5 15.00 1200.03 280 443 2.000 10000.000 0.000 -1.505
6 18.00 1200.03 247 405 2.000 10000.000 0.000 -1.505
7 21.00 1200.03 228 425 2.000 10000.000 0.000 -1.505
8 24.00 1200.03 223 442 2.000 10000.000 0.000 -1.505
9 27.00 1200.03 244 467 2.000 10000.000 0.000 -1.505
10 30.00 1200.03 248 506 2.000 10000.000 0.000 -1.505
11 33.00 1200.03 262 570 2.000 10000.000 0.000 -1.505
12 36.00 1200.03 245 623 2.000 10000.000 0.000 -1.505
13 39.00 1200.03 293 614 2.000 10000.000 0.000 -1.505
14 42.00 1200.03 285 756 2.000 10000.000 0.000 -1.505
15 45.00 1200.03 329 834 2.000 10000.000 0.000 -1.505
16 48.00 1200.03 383 874 2.000 10000.000 0.000 -1.505
17 51.00 1200.03 355 914 2.000 10000.000 0.000 -1.505
18 54.00 1200.03 346 987 2.000 10000.000 0.000 -1.505
19 57.00 1200.03 364 1012 2.000 10000.000 0.000 -1.505
20 60.00 1200.03 351 1038 2.000 10000.000 0.000 -1.505
21 63.00 1200.03 354 1025 2.000 10000.000 0.000 -1.505
22 66.00 1200.03 397 1072 2.000 10000.000 0.000 -1.505
23 69.00 1200.03 388 1073 2.000 10000.000 0.000 -1.505
24 72.00 1200.03 369 1089 2.000 10000.000 0.000 -1.505
25 75.00 1200.03 371 1032 2.000 10000.000 0.000 -1.505
26 78.00 1200.03 391 947 2.000 10000.000 0.000 -1.505
27 81.00 1200.03 334 963 2.000 10000.000 0.000 -1.505
28 84.00 1200.03 376 922 2.000 10000.000 0.000 -1.505
29 87.00 1200.03 383 880 2.000 10000.000 0.000 -1.505
30 90.00 1200.03 325 813 2.000 10000.000 0.000 -1.505
31 93.00 1200.03 332 729 2.000 10000.000 0.000 -1.505
32 96.00 1200.03 316 647 2.000 10000.000 0.000 -1.505
33 99.00 1200.03 318 583 2.000 10000.000 0.000 -1.505
34 102.00 1200.03 274 551 2.000 10000.000 0.000 -1.505
35 105.00 1200.03 301 522 2.000 10000.000 0.000 -1.505
36 108.00 1200.03 267 459 2.000 10000.000 0.000 -1.505
37 111.00 1200.03 261 452 2.000 10000.000 0.000 -1.505
38 114.00 1200.03 283 441 2.000 10000.000 0.000 -1.505
39 117.00 1200.03 245 403 2.000 10000.000 0.000 -1.505
40 120.00 1200.03 226 432 2.000 10000.000 0.000 -1.505
41 123.00 1200.03 260 429 2.000 10000.000 0.000 -1.505
42 126.00 1200.03 266 416 2.000 10000.000 0.000 -1.505
43 129.00 1200.03 268 500 2.000 10000.000 0.000 -1.505
44 132.00 1200.03 282 519 2.000 10000.000 0.000 -1.505
45 135.00 1200.03 268 607 2.000 10000.000 0.000 -1.505
46 138.00 1200.03 310 688 2.000 10000.000 0.000 -1.505
47 141.00 1200.03 310 733 2.000 10000.000 0.000 -1.505
48 144.00 1200.03 329 765 2.000 10000.000 0.000 -1.505
49 147.00 1200.03 313 826 2.000 10000.000 0.000 -1.505
50 150.00 1200.03 358 938 2.000 10000.000 0.000 -1.505
51 153.00 1200.03 347 969 2.000 10000.000 0.000 -1.505
52 156.00 1200.03 378 994 2.000 10000.000 0.000 -1.505
53 159.00 1200.03 377 1032 2.000 10000.000 0.000 -1.505
54 162.00 1200.03 368 1049 2.000 10000.000 0.000 -1.505
55 165.00 1200.03 392 998 2.000 10000.000 0.000 -1.505
56 168.00 1200.03 439 1052 2.000 10000.000 0.000 -1.505
57 171.00 1200.03 374 1017 2.000 10000.000 0.000 -1.505
58 174.00 1200.03 419 1005 2.000 10000.000 0.000 -1.505
59 177.00 1200.03 368 1039 2.000 10000.000 0.000 -1.505
60 180.00 1200.03 342 987 2.000 10000.000 0.000 -1.505
61 183.00 1200.03 336 984 2.000 10000.000 0.000 -1.505
62 186.00 1200.03 358 888 2.000 10000.000 0.000 -1.505
63 189.00 1200.03 345 807 2.000 10000.000 0.000 -1.505
64 192.00 1200.03 364 833 2.000 10000.000 0.000 -1.505
65 195.00 1200.03 358 656 2.000 10000.000 0.000 -1.505
66 198.00 1200.03 308 624 2.000 10000.000 0.000 -1.505
67 201.00 1200.03 275 590 2.000 10000.000 0.000 -1.505
68 204.00 1200.03 288 512 2.000 10000.000 0.000 -1.505
69 207.00 1200.03 273 466 2.000 10000.000 0.000 -1.505
70 210.00 1200.03 265 481 2.000 10000.000 0.000 -1.505
71 213.00 1200.03 243 425 2.000 10000.000 0.000 -1.505
72 216.00 1200.03 268 397 2.000 10000.000 0.000 -1.505
73 219.00 1200.03 237 423 2.000 10000.000 0.000 -1.505
74 222.00 1200.03 253 426 2.000 10000.000 0.000 -1.505
75 225.00 1200.03 254 430 2.000 10000.000 0.000 -1.505
76 228.00 1200.03 252 485 2.000 10000.000 0.000 -1.505
77 231.00 1200.03 277 555 2.000 10000.000 0.000 -1.505
78 234.00 1200.03 294 604 2.000 10000.000 0.000 -1.505
79 237.00 1200.03 279 602 2.000 10000.000 0.000 -1.505
80 240.00 1200.03 327 702 2.000 10000.000 0.000 -1.505
81 243.00 1200.03 332 755 2.000 10000.000 0.000 -1.505
82 246.00 1200.03 357 833 2.000 10000.000 0.000 -1.505
83 249.00 1200.03 359 887 2.000 10000.000 0.000 -1.505
84 252.00 1200.03 392 986 2.000 10000.000 0.000 -1.505
85 255.00 1200.03 344 986 2.000 10000.000 0.000 -1.505
86 258.00 1200.03 353 964 2.000 10000.000 0.000 -1.505
87 261.00 1200.03 379 1009 2.000 10000.000 0.000 -1.505
88 264.00 1200.03 379 1064 2.000 10000.000 0.000 -1.505
89 267.00 1200.03 378 1038 2.000 10000.000 0.000 -1.505
90 270.00 1200.03 358 1087 2.000 10000.000 0.000 -1.505
91 273.00 1200.03 399 1049 2.000 10000.000 0.000 -1.505
92 276.00 1200.03 390 1043 2.000 10000.000 0.000 -1.505
93 279.00 1200.03 398 962 2.000 10000.000 0.000 -1.505
94 282.00 1200.03 372 996 2.000 10000.000 0.000 -1.505
95 285.00 1200.03 345 944 2.000 10000.000 0.000 -1.505
96 288.00 1200.03 377 859 2.000 10000.000 0.000 -1.505
97 291.00 1200.03 365 771 2.000 10000.000 0.000 -1.505
98 294.00 1200.03 352 697 2.000 10000.000 0.000 -1.505
99 297.00 1200.03 307 655 2.000 10000.000 0.000 -1.505
100 300.00 1200.03 249 516 2.000 10000.000 0.000 -1.505
