# BinNR microsec tot-time (s)  O-Beam AUX Ampl(V) f(Hz) phase(deg) chi(pos)
0 0.00 1200.05 87 87 2.000 10000.000 0.000 0.714
1 3.00 1200.05 139 178 2.000 10000.000 0.000 0.714
2 6.00 1200.05 156 179 2.000 10000.000 0.000 0.714
3 9.00 1200.05 138 206 2.000 10000.000 0.000 0.714
4 12.00 1200.05 136 215 2.000 10000.000 0.000 0.714
5 15.00 1200.05 136 204 2.000 10000.000 0.000 0.714
6 18.00 1200.05 136 262 2.000 10000.000 0.000 0.714
7 21.00 1200.05 137 211 2.000 10000.000 0.000 0.714
8 24.00 1200.05 150 208 2.000 10000.000 0.000 0.714
9 27.00 1200.05 130 182 2.000 10000.000 0.000 0.714
10 30.00 1200.05 163 178 2.000 10000.000 0.000 0.714
11 33.00 1200.05 121 159 2.000 10000.000 0.000 0.714
12 36.00 1200.05 160 157 2.000 10000.000 0.000 0.714
13 39.00 1200.05 156 166 2.000 10000.000 0.000 0.714
14 42.00 1200.05 148 178 2.000 10000.000 0.000 0.714
15 45.00 1200.05 140 203 2.000 10000.000 0.000 0.714
16 48.00 1200.05 155 232 2.000 10000.000 0.000 0.714
17 51.00 1200.05 190 265 2.000 10000.000 0.000 0.714
18 54.00 1200.05 229 298 2.000 10000.000 0.000 0.714
19 57.00 1200.05 184 370 2.000 10000.000 0.000 0.714
20 60.00 1200.05 202 380 2.000 10000.000 0.000 0.714
21 63.00 1200.05 205 420 2.000 10000.000 0.000 0.714
22 66.00 1200.05 213 395 2.000 10000.000 0.000 0.714
23 69.00 1200.05 224 413 2.000 10000.000 0.000 0.714
24 72.00 1200.05 235 388 2.000 10000.000 0.000 0.714
25 75.00 1200.05 238 395 2.000 10000.000 0.000 0.714
26 78.00 1200.05 223 333 2.000 10000.000 0.000 0.714
27 81.00 1200.05 208 278 2.000 10000.000 0.000 0.714
28 84.00 1200.05 199 270 2.000 10000.000 0.000 0.714
29 87.00 1200.05 182 233 2.000 10000.000 0.000 0.714
30 90.00 1200.05 182 191 2.000 10000.000 0.000 0.714
31 93.00 1200.05 171 165 2.000 10000.000 0.000 0.714
32 96.00 1200.05 143 145 2.000 10000.000 0.000 0.714
33 99.00 1200.05 146 139 2.000 10000.000 0.000 0.714
34 102.00 1200.05 161 170 2.000 10000.000 0.000 0.714
35 105.00 1200.05 146 199 2.000 10000.000 0.000 0.714
36 108.00 1200.05 179 222 2.000 10000.000 0.000 0.714
37 111.00 1200.05 143 213 2.000 10000.000 0.000 0.714
38 114.00 1200.05 141 233 2.000 10000.000 0.000 0.714
39 117.00 1200.05 140 224 2.000 10000.000 0.000 0.714
40 120.00 1200.05 149 207 2.000 10000.000 0.000 0.714
41 123.00 1200.05 127 193 2.000 10000.000 0.000 0.714
42 126.00 1200.05 143 232 2.000 10000.000 0.000 0.714
43 129.00 1200.05 140 168 2.000 10000.000 0.000 0.714
44 132.00 1200.05 130 157 2.000 10000.000 0.000 0.714
45 135.00 1200.05 117 152 2.000 10000.000 0.000 0.714
46 138.00 1200.05 157 178 2.000 10000.000 0.000 0.714
47 141.00 1200.05 165 164 2.000 10000.000 0.000 0.714
48 144.00 1200.05 185 196 2.000 10000.000 0.000 0.714
49 147.00 1200.05 167 216 2.000 10000.000 0.000 0.714
50 150.00 1200.05 181 266 2.000 10000.000 0.000 0.714
51 153.00 1200.05 176 298 2.000 10000.000 0.000 0.714
52 156.00 1200.05 206 332 2.000 10000.000 0.000 0.714
53 159.00 1200.05 183 334 2.000 10000.000 0.000 0.714
54 162.00 1200.05 203 424 2.000 10000.000 0.000 0.714
55 165.00 1200.05 212 435 2.000 10000.000 0.000 0.714
56 168.00 1200.05 208 427 2.000 10000.000 0.000 0.714
57 171.00 1200.05 226 423 2.000 10000.000 0.000 0.714
58 174.00 1200.05 231 363 2.000 10000.000 0.000 0.714
59 177.00 1200.05 235 352 2.000 10000.000 0.000 0.714
60 180.00 1200.05 221 301 2.000 10000.000 0.000 0.714
61 183.00 1200.05 209 292 2.000 10000.000 0.000 0.714
62 186.00 1200.05 168 223 2.000 10000.000 0.000 0.714
63 189.00 1200.05 143 223 2.000 10000.000 0.000 0.714
64 192.00 1200.05 175 166 2.000 10000.000 0.000 0.714
65 195.00 1200.05 168 140 2.000 10000.000 0.000 0.714
66 198.00 1200.05 176 152 2.000 10000.000 0.000 0.714
67 201.00 1200.05 133 182 2.000 10000.000 0.000 0.714
68 204.00 1200.05 159 194 2.000 10000.000 0.000 0.714
69 207.00 1200.05 152 190 2.000 10000.000 0.000 0.714
70 210.00 1200.05 149 202 2.000 10000.000 0.000 0.714
71 213.00 1200.05 140 222 2.000 10000.000 0.000 0.714
72 216.00 1200.05 140 217 2.000 10000.000 0.000 0.714
73 219.00 1200.05 141 208 2.000 10000.000 0.000 0.714
74 222.00 1200.05 155 232 2.000 10000.000 0.000 0.714
75 225.00 1200.05 168 205 2.000 10000.000 0.000 0.714
76 228.00 1200.05 127 193 2.000 10000.000 0.000 0.714
77 231.00 1200.05 139 174 2.000 10000.000 0.000 0.714
78 234.00 1200.05 146 170 2.000 10000.000 0.000 0.714
79 237.00 1200.05 151 157 2.000 10000.000 0.000 0.714
80 240.00 1200.05 137 177 2.000 10000.000 0.000 0.714
81 243.00 1200.05 163 172 2.000 10000.000 0.000 0.714
82 246.00 1200.05 173 199 2.000 10000.000 0.000 0.714
83 249.00 1200.05 175 209 2.000 10000.000 0.000 0.714
84 252.00 1200.05 180 275 2.000 10000.000 0.000 0.714
85 255.00 1200.05 206 330 2.000 10000.000 0.000 0.714
86 258.00 1200.05 200 380 2.000 10000.000 0.000 0.714
87 261.00 1200.05 222 385 2.000 10000.000 0.000 0.714
88 264.00 1200.05 213 374 2.000 10000.000 0.000 0.714
89 267.00 1200.05 240 450 2.000 10000.000 0.000 0.714
90 270.00 1200.05 225 424 2.000 10000.000 0.000 0.714
91 273.00 1200.05 234 380 2.000 10000.000 0.000 0.714
92 276.00 1200.05 233 386 2.000 10000.000 0.000 0.714
93 279.00 1200.05 207 316 2.000 10000.000 0.000 0.714
94 282.00 1200.05 215 291 2.000 10000.000 0.000 0.714
95 285.00 1200.05 211 274 2.000 10000.000 0.000 0.714
96 288.00 1200.05 202 220 2.000 10000.000 0.000 0.714
97 291.00 1200.05 188 179 2.000 10000.000 0.000 0.714
98 294.00 1200.05 207 172 2.000 10000.000 0.000 0.714
99 297.00 1200.05 153 169 2.000 10000.000 0.000 0.714
100 300.00 1200.05 134 134 2.000 10000.000 0.000 0.714
