# BinNR microsec tot-time (s)  O-Beam AUX Ampl_1(V) f_1(Hz) phase_1(deg) Ampl_2(V) f_2(Hz) phase_2(deg) chi(pos)
0 0.00 1500.01 662 1839 0.000 0.000 0.000 1.000 10000.000 0.000 -0.176
1 3.00 1500.01 1248 3845 0.000 0.000 0.000 1.000 10000.000 0.000 -0.176
2 6.00 1500.01 1322 3857 0.000 0.000 0.000 1.000 10000.000 0.000 -0.176
3 9.00 1500.01 1275 3863 0.000 0.000 0.000 1.000 10000.000 0.000 -0.176
4 12.00 1500.01 1284 3751 0.000 0.000 0.000 1.000 10000.000 0.000 -0.176
5 15.00 1500.01 1274 3740 0.000 0.000 0.000 1.000 10000.000 0.000 -0.176
6 18.00 1500.01 1296 3802 0.000 0.000 0.000 1.000 10000.000 0.000 -0.176
7 21.00 1500.01 1321 3686 0.000 0.000 0.000 1.000 10000.000 0.000 -0.176
8 24.00 1500.01 1283 3941 0.000 0.000 0.000 1.000 10000.000 0.000 -0.176
9 27.00 1500.01 1223 3816 0.000 0.000 0.000 1.000 10000.000 0.000 -0.176
10 30.00 1500.01 1309 3826 0.000 0.000 0.000 1.000 10000.000 0.000 -0.176
11 33.00 1500.01 1275 3762 0.000 0.000 0.000 1.000 10000.000 0.000 -0.176
12 36.00 1500.01 1280 3759 0.000 0.000 0.000 1.000 10000.000 0.000 -0.176
13 39.00 1500.01 1244 3629 0.000 0.000 0.000 1.000 10000.000 0.000 -0.176
14 42.00 1500.01 1200 3678 0.000 0.000 0.000 1.000 10000.000 0.000 -0.176
15 45.00 1500.01 1295 3742 0.000 0.000 0.000 1.000 10000.000 0.000 -0.176
16 48.00 1500.01 1365 3774 0.000 0.000 0.000 1.000 10000.000 0.000 -0.176
17 51.00 1500.01 1260 3644 0.000 0.000 0.000 1.000 10000.000 0.000 -0.176
18 54.00 1500.01 1330 3834 0.000 0.000 0.000 1.000 10000.000 0.000 -0.176
19 57.00 1500.01 1216 3791 0.000 0.000 0.000 1.000 10000.000 0.000 -0.176
20 60.00 1500.01 1284 3778 0.000 0.000 0.000 1.000 10000.000 0.000 -0.176
21 63.00 1500.01 1304 3804 0.000 0.000 0.000 1.000 10000.000 0.000 -0.176
22 66.00 1500.01 1382 3913 0.000 0.000 0.000 1.000 10000.000 0.000 -0.176
23 69.00 1500.01 1251 3793 0.000 0.000 0.000 1.000 10000.000 0.000 -0.176
24 72.00 1500.01 1328 3748 0.000 0.000 0.000 1.000 10000.000 0.000 -0.176
25 75.00 1500.01 1359 3804 0.000 0.000 0.000 1.000 10000.000 0.000 -0.176
26 78.00 1500.01 1273 3775 0.000 0.000 0.000 1.000 10000.000 0.000 -0.176
27 81.00 1500.01 1310 3827 0.000 0.000 0.000 1.000 10000.000 0.000 -0.176
28 84.00 1500.01 1330 3866 0.000 0.000 0.000 1.000 10000.000 0.000 -0.176
29 87.00 1500.01 1282 3770 0.000 0.000 0.000 1.000 10000.000 0.000 -0.176
30 90.00 1500.01 1328 3772 0.000 0.000 0.000 1.000 10000.000 0.000 -0.176
31 93.00 1500.01 1290 3676 0.000 0.000 0.000 1.000 10000.000 0.000 -0.176
32 96.00 1500.01 1285 3736 0.000 0.000 0.000 1.000 10000.000 0.000 -0.176
33 99.00 1500.01 1251 3709 0.000 0.000 0.000 1.000 10000.000 0.000 -0.176
34 102.00 1500.01 1361 3822 0.000 0.000 0.000 1.000 10000.000 0.000 -0.176
35 105.00 1500.01 1334 3826 0.000 0.000 0.000 1.000 10000.000 0.000 -0.176
36 108.00 1500.01 1319 3794 0.000 0.000 0.000 1.000 10000.000 0.000 -0.176
37 111.00 1500.01 1245 3771 0.000 0.000 0.000 1.000 10000.000 0.000 -0.176
38 114.00 1500.01 1280 3803 0.000 0.000 0.000 1.000 10000.000 0.000 -0.176
39 117.00 1500.01 1267 3807 0.000 0.000 0.000 1.000 10000.000 0.000 -0.176
40 120.00 1500.01 1300 3864 0.000 0.000 0.000 1.000 10000.000 0.000 -0.176
41 123.00 1500.01 1315 3777 0.000 0.000 0.000 1.000 10000.000 0.000 -0.176
42 126.00 1500.01 1362 3875 0.000 0.000 0.000 1.000 10000.000 0.000 -0.176
43 129.00 1500.01 1308 3840 0.000 0.000 0.000 1.000 10000.000 0.000 -0.176
44 132.00 1500.01 1321 3816 0.000 0.000 0.000 1.000 10000.000 0.000 -0.176
45 135.00 1500.01 1267 3636 0.000 0.000 0.000 1.000 10000.000 0.000 -0.176
46 138.00 1500.01 1397 3735 0.000 0.000 0.000 1.000 10000.000 0.000 -0.176
47 141.00 1500.01 1222 3731 0.000 0.000 0.000 1.000 10000.000 0.000 -0.176
48 144.00 1500.01 1331 3778 0.000 0.000 0.000 1.000 10000.000 0.000 -0.176
49 147.00 1500.01 1283 3686 0.000 0.000 0.000 1.000 10000.000 0.000 -0.176
50 150.00 1500.01 1296 3726 0.000 0.000 0.000 1.000 10000.000 0.000 -0.176
51 153.00 1500.01 1238 3759 0.000 0.000 0.000 1.000 10000.000 0.000 -0.176
52 156.00 1500.01 1273 3796 0.000 0.000 0.000 1.000 10000.000 0.000 -0.176
53 159.00 1500.01 1307 3703 0.000 0.000 0.000 1.000 10000.000 0.000 -0.176
54 162.00 1500.01 1251 3809 0.000 0.000 0.000 1.000 10000.000 0.000 -0.176
55 165.00 1500.01 1238 3629 0.000 0.000 0.000 1.000 10000.000 0.000 -0.176
56 168.00 1500.01 1293 3842 0.000 0.000 0.000 1.000 10000.000 0.000 -0.176
57 171.00 1500.01 1335 3734 0.000 0.000 0.000 1.000 10000.000 0.000 -0.176
58 174.00 1500.01 1321 3846 0.000 0.000 0.000 1.000 10000.000 0.000 -0.176
59 177.00 1500.01 1276 3746 0.000 0.000 0.000 1.000 10000.000 0.000 -0.176
60 180.00 1500.01 1277 3796 0.000 0.000 0.000 1.000 10000.000 0.000 -0.176
61 183.00 1500.01 1299 3658 0.000 0.000 0.000 1.000 10000.000 0.000 -0.176
62 186.00 1500.01 1313 3729 0.000 0.000 0.000 1.000 10000.000 0.000 -0.176
63 189.00 1500.01 1243 3691 0.000 0.000 0.000 1.000 10000.000 0.000 -0.176
64 192.00 1500.01 1276 3785 0.000 0.000 0.000 1.000 10000.000 0.000 -0.176
65 195.00 1500.01 1284 3701 0.000 0.000 0.000 1.000 10000.000 0.000 -0.176
66 198.00 1500.01 1219 3670 0.000 0.000 0.000 1.000 10000.000 0.000 -0.176
67 201.00 1500.01 1342 3715 0.000 0.000 0.000 1.000 10000.000 0.000 -0.176
68 204.00 1500.01 1267 3846 0.000 0.000 0.000 1.000 10000.000 0.000 -0.176
69 207.00 1500.01 1318 3845 0.000 0.000 0.000 1.000 10000.000 0.000 -0.176
70 210.00 1500.01 1373 3810 0.000 0.000 0.000 1.000 10000.000 0.000 -0.176
71 213.00 1500.01 1335 3673 0.000 0.000 0.000 1.000 10000.000 0.000 -0.176
72 216.00 1500.01 1305 3897 0.000 0.000 0.000 1.000 10000.000 0.000 -0.176
73 219.00 1500.01 1215 3843 0.000 0.000 0.000 1.000 10000.000 0.000 -0.176
74 222.00 1500.01 1238 3920 0.000 0.000 0.000 1.000 10000.000 0.000 -0.176
75 225.00 1500.01 1266 3736 0.000 0.000 0.000 1.000 10000.000 0.000 -0.176
76 228.00 1500.01 1256 3844 0.000 0.000 0.000 1.000 10000.000 0.000 -0.176
77 231.00 1500.01 1279 3756 0.000 0.000 0.000 1.000 10000.000 0.000 -0.176
78 234.00 1500.01 1316 3776 0.000 0.000 0.000 1.000 10000.000 0.000 -0.176
79 237.00 1500.01 1238 3807 0.000 0.000 0.000 1.000 10000.000 0.000 -0.176
80 240.00 1500.01 1346 3795 0.000 0.000 0.000 1.000 10000.000 0.000 -0.176
81 243.00 1500.01 1213 3681 0.000 0.000 0.000 1.000 10000.000 0.000 -0.176
82 246.00 1500.01 1227 3661 0.000 0.000 0.000 1.000 10000.000 0.000 -0.176
83 249.00 1500.01 1277 3680 0.000 0.000 0.000 1.000 10000.000 0.000 -0.176
84 252.00 1500.01 1324 3654 0.000 0.000 0.000 1.000 10000.000 0.000 -0.176
85 255.00 1500.01 1232 3701 0.000 0.000 0.000 1.000 10000.000 0.000 -0.176
86 258.00 1500.01 1342 3873 0.000 0.000 0.000 1.000 10000.000 0.000 -0.176
87 261.00 1500.01 1335 3808 0.000 0.000 0.000 1.000 10000.000 0.000 -0.176
88 264.00 1500.01 1337 3749 0.000 0.000 0.000 1.000 10000.000 0.000 -0.176
89 267.00 1500.01 1274 3792 0.000 0.000 0.000 1.000 10000.000 0.000 -0.176
90 270.00 1500.01 1327 4006 0.000 0.000 0.000 1.000 10000.000 0.000 -0.176
91 273.00 1500.01 1327 3797 0.000 0.000 0.000 1.000 10000.000 0.000 -0.176
92 276.00 1500.01 1337 3788 0.000 0.000 0.000 1.000 10000.000 0.000 -0.176
93 279.00 1500.01 1277 3702 0.000 0.000 0.000 1.000 10000.000 0.000 -0.176
94 282.00 1500.01 1327 3866 0.000 0.000 0.000 1.000 10000.000 0.000 -0.176
95 285.00 1500.01 1261 3842 0.000 0.000 0.000 1.000 10000.000 0.000 -0.176
96 288.00 1500.01 1284 3879 0.000 0.000 0.000 1.000 10000.000 0.000 -0.176
97 291.00 1500.01 1212 3718 0.000 0.000 0.000 1.000 10000.000 0.000 -0.176
98 294.00 1500.01 1279 3782 0.000 0.000 0.000 1.000 10000.000 0.000 -0.176
99 297.00 1500.01 1287 3799 0.000 0.000 0.000 1.000 10000.000 0.000 -0.176
100 300.00 1500.01 1283 3751 0.000 0.000 0.000 1.000 10000.000 0.000 -0.176
101 303.00 1500.01 1290 3794 0.000 0.000 0.000 1.000 10000.000 0.000 -0.176
102 306.00 1500.01 1408 3750 0.000 0.000 0.000 1.000 10000.000 0.000 -0.176
103 309.00 1500.01 1295 3700 0.000 0.000 0.000 1.000 10000.000 0.000 -0.176
104 312.00 1500.01 1304 3818 0.000 0.000 0.000 1.000 10000.000 0.000 -0.176
105 315.00 1500.01 1326 3883 0.000 0.000 0.000 1.000 10000.000 0.000 -0.176
106 318.00 1500.01 1300 3931 0.000 0.000 0.000 1.000 10000.000 0.000 -0.176
107 321.00 1500.01 1228 3807 0.000 0.000 0.000 1.000 10000.000 0.000 -0.176
108 324.00 1500.01 1337 3835 0.000 0.000 0.000 1.000 10000.000 0.000 -0.176
109 327.00 1500.01 1299 3820 0.000 0.000 0.000 1.000 10000.000 0.000 -0.176
110 330.00 1500.01 1283 3817 0.000 0.000 0.000 1.000 10000.000 0.000 -0.176
111 333.00 1500.01 1250 3644 0.000 0.000 0.000 1.000 10000.000 0.000 -0.176
112 336.00 1500.01 1280 3833 0.000 0.000 0.000 1.000 10000.000 0.000 -0.176
113 339.00 1500.01 1327 3671 0.000 0.000 0.000 1.000 10000.000 0.000 -0.176
114 342.00 1500.01 1289 3679 0.000 0.000 0.000 1.000 10000.000 0.000 -0.176
115 345.00 1500.01 1249 3656 0.000 0.000 0.000 1.000 10000.000 0.000 -0.176
116 348.00 1500.01 1291 3803 0.000 0.000 0.000 1.000 10000.000 0.000 -0.176
117 351.00 1500.01 1285 3700 0.000 0.000 0.000 1.000 10000.000 0.000 -0.176
118 354.00 1500.01 1298 3708 0.000 0.000 0.000 1.000 10000.000 0.000 -0.176
119 357.00 1500.01 1279 3744 0.000 0.000 0.000 1.000 10000.000 0.000 -0.176
120 360.00 1500.01 1255 3761 0.000 0.000 0.000 1.000 10000.000 0.000 -0.176
121 363.00 1500.01 1339 3602 0.000 0.000 0.000 1.000 10000.000 0.000 -0.176
122 366.00 1500.01 1361 3808 0.000 0.000 0.000 1.000 10000.000 0.000 -0.176
123 369.00 1500.01 1335 3844 0.000 0.000 0.000 1.000 10000.000 0.000 -0.176
124 372.00 1500.01 1311 3913 0.000 0.000 0.000 1.000 10000.000 0.000 -0.176
125 375.00 1500.01 1272 3656 0.000 0.000 0.000 1.000 10000.000 0.000 -0.176
126 378.00 1500.01 1345 3913 0.000 0.000 0.000 1.000 10000.000 0.000 -0.176
127 381.00 1500.01 1248 3691 0.000 0.000 0.000 1.000 10000.000 0.000 -0.176
128 384.00 1500.01 1259 3845 0.000 0.000 0.000 1.000 10000.000 0.000 -0.176
129 387.00 1500.01 1254 3669 0.000 0.000 0.000 1.000 10000.000 0.000 -0.176
130 390.00 1500.01 1317 3895 0.000 0.000 0.000 1.000 10000.000 0.000 -0.176
131 393.00 1500.01 1189 3731 0.000 0.000 0.000 1.000 10000.000 0.000 -0.176
132 396.00 1500.01 1353 3778 0.000 0.000 0.000 1.000 10000.000 0.000 -0.176
133 399.00 1500.01 1255 3772 0.000 0.000 0.000 1.000 10000.000 0.000 -0.176
134 402.00 1500.01 1364 3854 0.000 0.000 0.000 1.000 10000.000 0.000 -0.176
