# BinNR microsec tot-time (s)  O-Beam AUX Ampl_1(V) f_1(Hz) phase_1(deg) Ampl_2(V) f_2(Hz) phase_2(deg) chi(pos)
0 0.00 1500.00 368 1261 0.000 0.000 0.000 1.000 10000.000 0.000 1.165
1 3.00 1500.00 742 2476 0.000 0.000 0.000 1.000 10000.000 0.000 1.165
2 6.00 1500.00 789 2519 0.000 0.000 0.000 1.000 10000.000 0.000 1.165
3 9.00 1500.00 800 2401 0.000 0.000 0.000 1.000 10000.000 0.000 1.165
4 12.00 1500.00 872 2456 0.000 0.000 0.000 1.000 10000.000 0.000 1.165
5 15.00 1500.00 808 2516 0.000 0.000 0.000 1.000 10000.000 0.000 1.165
6 18.00 1500.00 811 2499 0.000 0.000 0.000 1.000 10000.000 0.000 1.165
7 21.00 1500.00 771 2468 0.000 0.000 0.000 1.000 10000.000 0.000 1.165
8 24.00 1500.00 796 2600 0.000 0.000 0.000 1.000 10000.000 0.000 1.165
9 27.00 1500.00 809 2431 0.000 0.000 0.000 1.000 10000.000 0.000 1.165
10 30.00 1500.00 831 2508 0.000 0.000 0.000 1.000 10000.000 0.000 1.165
11 33.00 1500.00 757 2519 0.000 0.000 0.000 1.000 10000.000 0.000 1.165
12 36.00 1500.00 798 2605 0.000 0.000 0.000 1.000 10000.000 0.000 1.165
13 39.00 1500.00 785 2463 0.000 0.000 0.000 1.000 10000.000 0.000 1.165
14 42.00 1500.00 762 2524 0.000 0.000 0.000 1.000 10000.000 0.000 1.165
15 45.00 1500.00 806 2510 0.000 0.000 0.000 1.000 10000.000 0.000 1.165
16 48.00 1500.00 805 2526 0.000 0.000 0.000 1.000 10000.000 0.000 1.165
17 51.00 1500.00 806 2501 0.000 0.000 0.000 1.000 10000.000 0.000 1.165
18 54.00 1500.00 757 2502 0.000 0.000 0.000 1.000 10000.000 0.000 1.165
19 57.00 1500.00 840 2522 0.000 0.000 0.000 1.000 10000.000 0.000 1.165
20 60.00 1500.00 824 2570 0.000 0.000 0.000 1.000 10000.000 0.000 1.165
21 63.00 1500.00 791 2519 0.000 0.000 0.000 1.000 10000.000 0.000 1.165
22 66.00 1500.00 776 2503 0.000 0.000 0.000 1.000 10000.000 0.000 1.165
23 69.00 1500.00 747 2412 0.000 0.000 0.000 1.000 10000.000 0.000 1.165
24 72.00 1500.00 741 2577 0.000 0.000 0.000 1.000 10000.000 0.000 1.165
25 75.00 1500.00 725 2467 0.000 0.000 0.000 1.000 10000.000 0.000 1.165
26 78.00 1500.00 806 2612 0.000 0.000 0.000 1.000 10000.000 0.000 1.165
27 81.00 1500.00 819 2475 0.000 0.000 0.000 1.000 10000.000 0.000 1.165
28 84.00 1500.00 830 2596 0.000 0.000 0.000 1.000 10000.000 0.000 1.165
29 87.00 1500.00 777 2507 0.000 0.000 0.000 1.000 10000.000 0.000 1.165
30 90.00 1500.00 752 2669 0.000 0.000 0.000 1.000 10000.000 0.000 1.165
31 93.00 1500.00 800 2409 0.000 0.000 0.000 1.000 10000.000 0.000 1.165
32 96.00 1500.00 795 2491 0.000 0.000 0.000 1.000 10000.000 0.000 1.165
33 99.00 1500.00 777 2437 0.000 0.000 0.000 1.000 10000.000 0.000 1.165
34 102.00 1500.00 782 2546 0.000 0.000 0.000 1.000 10000.000 0.000 1.165
35 105.00 1500.00 828 2353 0.000 0.000 0.000 1.000 10000.000 0.000 1.165
36 108.00 1500.00 768 2599 0.000 0.000 0.000 1.000 10000.000 0.000 1.165
37 111.00 1500.00 715 2451 0.000 0.000 0.000 1.000 10000.000 0.000 1.165
38 114.00 1500.00 783 2545 0.000 0.000 0.000 1.000 10000.000 0.000 1.165
39 117.00 1500.00 730 2519 0.000 0.000 0.000 1.000 10000.000 0.000 1.165
40 120.00 1500.00 817 2516 0.000 0.000 0.000 1.000 10000.000 0.000 1.165
41 123.00 1500.00 833 2487 0.000 0.000 0.000 1.000 10000.000 0.000 1.165
42 126.00 1500.00 792 2437 0.000 0.000 0.000 1.000 10000.000 0.000 1.165
43 129.00 1500.00 691 2501 0.000 0.000 0.000 1.000 10000.000 0.000 1.165
44 132.00 1500.00 800 2540 0.000 0.000 0.000 1.000 10000.000 0.000 1.165
45 135.00 1500.00 706 2496 0.000 0.000 0.000 1.000 10000.000 0.000 1.165
46 138.00 1500.00 789 2499 0.000 0.000 0.000 1.000 10000.000 0.000 1.165
47 141.00 1500.00 758 2468 0.000 0.000 0.000 1.000 10000.000 0.000 1.165
48 144.00 1500.00 785 2540 0.000 0.000 0.000 1.000 10000.000 0.000 1.165
49 147.00 1500.00 791 2487 0.000 0.000 0.000 1.000 10000.000 0.000 1.165
50 150.00 1500.00 745 2562 0.000 0.000 0.000 1.000 10000.000 0.000 1.165
51 153.00 1500.00 796 2548 0.000 0.000 0.000 1.000 10000.000 0.000 1.165
52 156.00 1500.00 784 2521 0.000 0.000 0.000 1.000 10000.000 0.000 1.165
53 159.00 1500.00 759 2527 0.000 0.000 0.000 1.000 10000.000 0.000 1.165
54 162.00 1500.00 766 2478 0.000 0.000 0.000 1.000 10000.000 0.000 1.165
55 165.00 1500.00 769 2467 0.000 0.000 0.000 1.000 10000.000 0.000 1.165
56 168.00 1500.00 823 2500 0.000 0.000 0.000 1.000 10000.000 0.000 1.165
57 171.00 1500.00 800 2547 0.000 0.000 0.000 1.000 10000.000 0.000 1.165
58 174.00 1500.00 792 2536 0.000 0.000 0.000 1.000 10000.000 0.000 1.165
59 177.00 1500.00 760 2577 0.000 0.000 0.000 1.000 10000.000 0.000 1.165
60 180.00 1500.00 782 2533 0.000 0.000 0.000 1.000 10000.000 0.000 1.165
61 183.00 1500.00 801 2528 0.000 0.000 0.000 1.000 10000.000 0.000 1.165
62 186.00 1500.00 802 2509 0.000 0.000 0.000 1.000 10000.000 0.000 1.165
63 189.00 1500.00 791 2574 0.000 0.000 0.000 1.000 10000.000 0.000 1.165
64 192.00 1500.00 730 2493 0.000 0.000 0.000 1.000 10000.000 0.000 1.165
65 195.00 1500.00 787 2511 0.000 0.000 0.000 1.000 10000.000 0.000 1.165
66 198.00 1500.00 847 2518 0.000 0.000 0.000 1.000 10000.000 0.000 1.165
67 201.00 1500.00 757 2554 0.000 0.000 0.000 1.000 10000.000 0.000 1.165
68 204.00 1500.00 742 2568 0.000 0.000 0.000 1.000 10000.000 0.000 1.165
69 207.00 1500.00 718 2531 0.000 0.000 0.000 1.000 10000.000 0.000 1.165
70 210.00 1500.00 742 2580 0.000 0.000 0.000 1.000 10000.000 0.000 1.165
71 213.00 1500.00 759 2408 0.000 0.000 0.000 1.000 10000.000 0.000 1.165
72 216.00 1500.00 794 2594 0.000 0.000 0.000 1.000 10000.000 0.000 1.165
73 219.00 1500.00 759 2456 0.000 0.000 0.000 1.000 10000.000 0.000 1.165
74 222.00 1500.00 794 2602 0.000 0.000 0.000 1.000 10000.000 0.000 1.165
75 225.00 1500.00 792 2454 0.000 0.000 0.000 1.000 10000.000 0.000 1.165
76 228.00 1500.00 814 2652 0.000 0.000 0.000 1.000 10000.000 0.000 1.165
77 231.00 1500.00 767 2510 0.000 0.000 0.000 1.000 10000.000 0.000 1.165
78 234.00 1500.00 762 2588 0.000 0.000 0.000 1.000 10000.000 0.000 1.165
79 237.00 1500.00 836 2533 0.000 0.000 0.000 1.000 10000.000 0.000 1.165
80 240.00 1500.00 796 2532 0.000 0.000 0.000 1.000 10000.000 0.000 1.165
81 243.00 1500.00 713 2493 0.000 0.000 0.000 1.000 10000.000 0.000 1.165
82 246.00 1500.00 731 2496 0.000 0.000 0.000 1.000 10000.000 0.000 1.165
83 249.00 1500.00 720 2477 0.000 0.000 0.000 1.000 10000.000 0.000 1.165
84 252.00 1500.00 818 2550 0.000 0.000 0.000 1.000 10000.000 0.000 1.165
85 255.00 1500.00 803 2468 0.000 0.000 0.000 1.000 10000.000 0.000 1.165
86 258.00 1500.00 774 2458 0.000 0.000 0.000 1.000 10000.000 0.000 1.165
87 261.00 1500.00 755 2533 0.000 0.000 0.000 1.000 10000.000 0.000 1.165
88 264.00 1500.00 808 2509 0.000 0.000 0.000 1.000 10000.000 0.000 1.165
89 267.00 1500.00 811 2632 0.000 0.000 0.000 1.000 10000.000 0.000 1.165
90 270.00 1500.00 839 2517 0.000 0.000 0.000 1.000 10000.000 0.000 1.165
91 273.00 1500.00 748 2470 0.000 0.000 0.000 1.000 10000.000 0.000 1.165
92 276.00 1500.00 819 2529 0.000 0.000 0.000 1.000 10000.000 0.000 1.165
93 279.00 1500.00 831 2563 0.000 0.000 0.000 1.000 10000.000 0.000 1.165
94 282.00 1500.00 793 2510 0.000 0.000 0.000 1.000 10000.000 0.000 1.165
95 285.00 1500.00 801 2474 0.000 0.000 0.000 1.000 10000.000 0.000 1.165
96 288.00 1500.00 781 2606 0.000 0.000 0.000 1.000 10000.000 0.000 1.165
97 291.00 1500.00 791 2417 0.000 0.000 0.000 1.000 10000.000 0.000 1.165
98 294.00 1500.00 813 2506 0.000 0.000 0.000 1.000 10000.000 0.000 1.165
99 297.00 1500.00 798 2519 0.000 0.000 0.000 1.000 10000.000 0.000 1.165
100 300.00 1500.00 806 2553 0.000 0.000 0.000 1.000 10000.000 0.000 1.165
101 303.00 1500.00 791 2494 0.000 0.000 0.000 1.000 10000.000 0.000 1.165
102 306.00 1500.00 808 2522 0.000 0.000 0.000 1.000 10000.000 0.000 1.165
103 309.00 1500.00 788 2537 0.000 0.000 0.000 1.000 10000.000 0.000 1.165
104 312.00 1500.00 811 2573 0.000 0.000 0.000 1.000 10000.000 0.000 1.165
105 315.00 1500.00 788 2508 0.000 0.000 0.000 1.000 10000.000 0.000 1.165
106 318.00 1500.00 829 2564 0.000 0.000 0.000 1.000 10000.000 0.000 1.165
107 321.00 1500.00 763 2412 0.000 0.000 0.000 1.000 10000.000 0.000 1.165
108 324.00 1500.00 793 2571 0.000 0.000 0.000 1.000 10000.000 0.000 1.165
109 327.00 1500.00 773 2547 0.000 0.000 0.000 1.000 10000.000 0.000 1.165
110 330.00 1500.00 743 2532 0.000 0.000 0.000 1.000 10000.000 0.000 1.165
111 333.00 1500.00 756 2551 0.000 0.000 0.000 1.000 10000.000 0.000 1.165
112 336.00 1500.00 845 2605 0.000 0.000 0.000 1.000 10000.000 0.000 1.165
113 339.00 1500.00 779 2499 0.000 0.000 0.000 1.000 10000.000 0.000 1.165
114 342.00 1500.00 807 2507 0.000 0.000 0.000 1.000 10000.000 0.000 1.165
115 345.00 1500.00 768 2416 0.000 0.000 0.000 1.000 10000.000 0.000 1.165
116 348.00 1500.00 774 2514 0.000 0.000 0.000 1.000 10000.000 0.000 1.165
117 351.00 1500.00 743 2479 0.000 0.000 0.000 1.000 10000.000 0.000 1.165
118 354.00 1500.00 817 2588 0.000 0.000 0.000 1.000 10000.000 0.000 1.165
119 357.00 1500.00 824 2576 0.000 0.000 0.000 1.000 10000.000 0.000 1.165
120 360.00 1500.00 784 2591 0.000 0.000 0.000 1.000 10000.000 0.000 1.165
121 363.00 1500.00 832 2477 0.000 0.000 0.000 1.000 10000.000 0.000 1.165
122 366.00 1500.00 787 2657 0.000 0.000 0.000 1.000 10000.000 0.000 1.165
123 369.00 1500.00 750 2501 0.000 0.000 0.000 1.000 10000.000 0.000 1.165
124 372.00 1500.00 790 2586 0.000 0.000 0.000 1.000 10000.000 0.000 1.165
125 375.00 1500.00 813 2506 0.000 0.000 0.000 1.000 10000.000 0.000 1.165
126 378.00 1500.00 807 2533 0.000 0.000 0.000 1.000 10000.000 0.000 1.165
127 381.00 1500.00 785 2503 0.000 0.000 0.000 1.000 10000.000 0.000 1.165
128 384.00 1500.00 762 2563 0.000 0.000 0.000 1.000 10000.000 0.000 1.165
129 387.00 1500.00 777 2450 0.000 0.000 0.000 1.000 10000.000 0.000 1.165
130 390.00 1500.00 782 2571 0.000 0.000 0.000 1.000 10000.000 0.000 1.165
131 393.00 1500.00 788 2515 0.000 0.000 0.000 1.000 10000.000 0.000 1.165
132 396.00 1500.00 796 2643 0.000 0.000 0.000 1.000 10000.000 0.000 1.165
133 399.00 1500.00 800 2541 0.000 0.000 0.000 1.000 10000.000 0.000 1.165
134 402.00 1500.00 737 2492 0.000 0.000 0.000 1.000 10000.000 0.000 1.165
