# BinNR microsec tot-time (s)  O-Beam AUX Ampl(V) f(Hz) phase(deg) chi(pos)
0 0.00 1200.02 65 139 1.100 10000.000 0.000 0.714
1 3.00 1200.02 133 279 1.100 10000.000 0.000 0.714
2 6.00 1200.02 138 300 1.100 10000.000 0.000 0.714
3 9.00 1200.02 116 288 1.100 10000.000 0.000 0.714
4 12.00 1200.02 112 259 1.100 10000.000 0.000 0.714
5 15.00 1200.02 130 223 1.100 10000.000 0.000 0.714
6 18.00 1200.02 145 280 1.100 10000.000 0.000 0.714
7 21.00 1200.02 133 288 1.100 10000.000 0.000 0.714
8 24.00 1200.02 144 289 1.100 10000.000 0.000 0.714
9 27.00 1200.02 132 281 1.100 10000.000 0.000 0.714
10 30.00 1200.02 124 301 1.100 10000.000 0.000 0.714
11 33.00 1200.02 113 257 1.100 10000.000 0.000 0.714
12 36.00 1200.02 111 255 1.100 10000.000 0.000 0.714
13 39.00 1200.02 111 258 1.100 10000.000 0.000 0.714
14 42.00 1200.02 135 255 1.100 10000.000 0.000 0.714
15 45.00 1200.02 125 272 1.100 10000.000 0.000 0.714
16 48.00 1200.02 121 266 1.100 10000.000 0.000 0.714
17 51.00 1200.02 126 255 1.100 10000.000 0.000 0.714
18 54.00 1200.02 129 232 1.100 10000.000 0.000 0.714
19 57.00 1200.02 117 232 1.100 10000.000 0.000 0.714
20 60.00 1200.02 108 230 1.100 10000.000 0.000 0.714
21 63.00 1200.02 106 233 1.100 10000.000 0.000 0.714
22 66.00 1200.02 106 256 1.100 10000.000 0.000 0.714
23 69.00 1200.02 106 295 1.100 10000.000 0.000 0.714
24 72.00 1200.02 118 262 1.100 10000.000 0.000 0.714
25 75.00 1200.02 116 273 1.100 10000.000 0.000 0.714
26 78.00 1200.02 98 253 1.100 10000.000 0.000 0.714
27 81.00 1200.02 103 275 1.100 10000.000 0.000 0.714
28 84.00 1200.02 126 292 1.100 10000.000 0.000 0.714
29 87.00 1200.02 113 284 1.100 10000.000 0.000 0.714
30 90.00 1200.02 116 262 1.100 10000.000 0.000 0.714
31 93.00 1200.02 139 275 1.100 10000.000 0.000 0.714
32 96.00 1200.02 104 291 1.100 10000.000 0.000 0.714
33 99.00 1200.02 124 303 1.100 10000.000 0.000 0.714
34 102.00 1200.02 125 295 1.100 10000.000 0.000 0.714
35 105.00 1200.02 115 294 1.100 10000.000 0.000 0.714
36 108.00 1200.02 145 307 1.100 10000.000 0.000 0.714
37 111.00 1200.02 145 285 1.100 10000.000 0.000 0.714
38 114.00 1200.02 114 318 1.100 10000.000 0.000 0.714
39 117.00 1200.02 136 279 1.100 10000.000 0.000 0.714
40 120.00 1200.02 127 306 1.100 10000.000 0.000 0.714
41 123.00 1200.02 135 287 1.100 10000.000 0.000 0.714
42 126.00 1200.02 113 282 1.100 10000.000 0.000 0.714
43 129.00 1200.02 96 270 1.100 10000.000 0.000 0.714
44 132.00 1200.02 130 268 1.100 10000.000 0.000 0.714
45 135.00 1200.02 125 275 1.100 10000.000 0.000 0.714
46 138.00 1200.02 138 264 1.100 10000.000 0.000 0.714
47 141.00 1200.02 135 240 1.100 10000.000 0.000 0.714
48 144.00 1200.02 133 267 1.100 10000.000 0.000 0.714
49 147.00 1200.02 133 230 1.100 10000.000 0.000 0.714
50 150.00 1200.02 123 257 1.100 10000.000 0.000 0.714
51 153.00 1200.02 107 250 1.100 10000.000 0.000 0.714
52 156.00 1200.02 139 246 1.100 10000.000 0.000 0.714
53 159.00 1200.02 125 259 1.100 10000.000 0.000 0.714
54 162.00 1200.02 130 257 1.100 10000.000 0.000 0.714
55 165.00 1200.02 124 256 1.100 10000.000 0.000 0.714
56 168.00 1200.02 137 256 1.100 10000.000 0.000 0.714
57 171.00 1200.02 137 232 1.100 10000.000 0.000 0.714
58 174.00 1200.02 142 251 1.100 10000.000 0.000 0.714
59 177.00 1200.02 134 272 1.100 10000.000 0.000 0.714
60 180.00 1200.02 128 247 1.100 10000.000 0.000 0.714
61 183.00 1200.02 127 238 1.100 10000.000 0.000 0.714
62 186.00 1200.02 134 264 1.100 10000.000 0.000 0.714
63 189.00 1200.02 128 285 1.100 10000.000 0.000 0.714
64 192.00 1200.02 131 253 1.100 10000.000 0.000 0.714
65 195.00 1200.02 131 319 1.100 10000.000 0.000 0.714
66 198.00 1200.02 126 308 1.100 10000.000 0.000 0.714
67 201.00 1200.02 114 277 1.100 10000.000 0.000 0.714
68 204.00 1200.02 121 262 1.100 10000.000 0.000 0.714
69 207.00 1200.02 108 260 1.100 10000.000 0.000 0.714
70 210.00 1200.02 133 281 1.100 10000.000 0.000 0.714
71 213.00 1200.02 145 278 1.100 10000.000 0.000 0.714
72 216.00 1200.02 121 297 1.100 10000.000 0.000 0.714
73 219.00 1200.02 135 289 1.100 10000.000 0.000 0.714
74 222.00 1200.02 117 281 1.100 10000.000 0.000 0.714
75 225.00 1200.02 120 288 1.100 10000.000 0.000 0.714
76 228.00 1200.02 131 280 1.100 10000.000 0.000 0.714
77 231.00 1200.02 124 258 1.100 10000.000 0.000 0.714
78 234.00 1200.02 108 251 1.100 10000.000 0.000 0.714
79 237.00 1200.02 110 257 1.100 10000.000 0.000 0.714
80 240.00 1200.02 118 262 1.100 10000.000 0.000 0.714
81 243.00 1200.02 126 244 1.100 10000.000 0.000 0.714
82 246.00 1200.02 127 296 1.100 10000.000 0.000 0.714
83 249.00 1200.02 142 248 1.100 10000.000 0.000 0.714
84 252.00 1200.02 155 263 1.100 10000.000 0.000 0.714
85 255.00 1200.02 103 233 1.100 10000.000 0.000 0.714
86 258.00 1200.02 107 239 1.100 10000.000 0.000 0.714
87 261.00 1200.02 135 245 1.100 10000.000 0.000 0.714
88 264.00 1200.02 119 260 1.100 10000.000 0.000 0.714
89 267.00 1200.02 127 262 1.100 10000.000 0.000 0.714
90 270.00 1200.02 127 257 1.100 10000.000 0.000 0.714
91 273.00 1200.02 133 260 1.100 10000.000 0.000 0.714
92 276.00 1200.02 120 264 1.100 10000.000 0.000 0.714
93 279.00 1200.02 131 250 1.100 10000.000 0.000 0.714
94 282.00 1200.02 128 288 1.100 10000.000 0.000 0.714
95 285.00 1200.02 120 256 1.100 10000.000 0.000 0.714
96 288.00 1200.02 130 302 1.100 10000.000 0.000 0.714
97 291.00 1200.02 115 252 1.100 10000.000 0.000 0.714
98 294.00 1200.02 119 282 1.100 10000.000 0.000 0.714
99 297.00 1200.02 117 281 1.100 10000.000 0.000 0.714
100 300.00 1200.02 113 264 1.100 10000.000 0.000 0.714
