# BinNR microsec tot-time (s)  O-Beam AUX Ampl(V) f(Hz) phase(deg) chi(pos)
0 0.00 1500.01 181 407 0.740 10000.000 0.000 0.154
1 3.00 1500.01 340 826 0.740 10000.000 0.000 0.154
2 6.00 1500.01 372 793 0.740 10000.000 0.000 0.154
3 9.00 1500.01 327 845 0.740 10000.000 0.000 0.154
4 12.00 1500.01 349 799 0.740 10000.000 0.000 0.154
5 15.00 1500.01 323 819 0.740 10000.000 0.000 0.154
6 18.00 1500.01 328 826 0.740 10000.000 0.000 0.154
7 21.00 1500.01 319 752 0.740 10000.000 0.000 0.154
8 24.00 1500.01 281 675 0.740 10000.000 0.000 0.154
9 27.00 1500.01 298 723 0.740 10000.000 0.000 0.154
10 30.00 1500.01 328 677 0.740 10000.000 0.000 0.154
11 33.00 1500.01 289 642 0.740 10000.000 0.000 0.154
12 36.00 1500.01 275 675 0.740 10000.000 0.000 0.154
13 39.00 1500.01 282 656 0.740 10000.000 0.000 0.154
14 42.00 1500.01 310 710 0.740 10000.000 0.000 0.154
15 45.00 1500.01 322 707 0.740 10000.000 0.000 0.154
16 48.00 1500.01 331 715 0.740 10000.000 0.000 0.154
17 51.00 1500.01 325 782 0.740 10000.000 0.000 0.154
18 54.00 1500.01 323 778 0.740 10000.000 0.000 0.154
19 57.00 1500.01 337 788 0.740 10000.000 0.000 0.154
20 60.00 1500.01 351 771 0.740 10000.000 0.000 0.154
21 63.00 1500.01 316 770 0.740 10000.000 0.000 0.154
22 66.00 1500.01 374 745 0.740 10000.000 0.000 0.154
23 69.00 1500.01 384 739 0.740 10000.000 0.000 0.154
24 72.00 1500.01 357 724 0.740 10000.000 0.000 0.154
25 75.00 1500.01 373 688 0.740 10000.000 0.000 0.154
26 78.00 1500.01 349 683 0.740 10000.000 0.000 0.154
27 81.00 1500.01 385 611 0.740 10000.000 0.000 0.154
28 84.00 1500.01 357 597 0.740 10000.000 0.000 0.154
29 87.00 1500.01 352 548 0.740 10000.000 0.000 0.154
30 90.00 1500.01 376 552 0.740 10000.000 0.000 0.154
31 93.00 1500.01 395 555 0.740 10000.000 0.000 0.154
32 96.00 1500.01 403 530 0.740 10000.000 0.000 0.154
33 99.00 1500.01 351 536 0.740 10000.000 0.000 0.154
34 102.00 1500.01 365 508 0.740 10000.000 0.000 0.154
35 105.00 1500.01 347 509 0.740 10000.000 0.000 0.154
36 108.00 1500.01 340 548 0.740 10000.000 0.000 0.154
37 111.00 1500.01 320 535 0.740 10000.000 0.000 0.154
38 114.00 1500.01 341 622 0.740 10000.000 0.000 0.154
39 117.00 1500.01 318 597 0.740 10000.000 0.000 0.154
40 120.00 1500.01 300 667 0.740 10000.000 0.000 0.154
41 123.00 1500.01 304 682 0.740 10000.000 0.000 0.154
42 126.00 1500.01 257 806 0.740 10000.000 0.000 0.154
43 129.00 1500.01 282 769 0.740 10000.000 0.000 0.154
44 132.00 1500.01 286 820 0.740 10000.000 0.000 0.154
45 135.00 1500.01 287 809 0.740 10000.000 0.000 0.154
46 138.00 1500.01 262 850 0.740 10000.000 0.000 0.154
47 141.00 1500.01 285 857 0.740 10000.000 0.000 0.154
48 144.00 1500.01 303 876 0.740 10000.000 0.000 0.154
49 147.00 1500.01 296 882 0.740 10000.000 0.000 0.154
50 150.00 1500.01 339 886 0.740 10000.000 0.000 0.154
51 153.00 1500.01 320 872 0.740 10000.000 0.000 0.154
52 156.00 1500.01 338 879 0.740 10000.000 0.000 0.154
53 159.00 1500.01 365 866 0.740 10000.000 0.000 0.154
54 162.00 1500.01 389 781 0.740 10000.000 0.000 0.154
55 165.00 1500.01 333 797 0.740 10000.000 0.000 0.154
56 168.00 1500.01 389 753 0.740 10000.000 0.000 0.154
57 171.00 1500.01 376 670 0.740 10000.000 0.000 0.154
58 174.00 1500.01 371 717 0.740 10000.000 0.000 0.154
59 177.00 1500.01 387 657 0.740 10000.000 0.000 0.154
60 180.00 1500.01 387 578 0.740 10000.000 0.000 0.154
61 183.00 1500.01 387 612 0.740 10000.000 0.000 0.154
62 186.00 1500.01 394 578 0.740 10000.000 0.000 0.154
63 189.00 1500.01 368 514 0.740 10000.000 0.000 0.154
64 192.00 1500.01 363 527 0.740 10000.000 0.000 0.154
65 195.00 1500.01 375 536 0.740 10000.000 0.000 0.154
66 198.00 1500.01 371 479 0.740 10000.000 0.000 0.154
67 201.00 1500.01 328 511 0.740 10000.000 0.000 0.154
68 204.00 1500.01 386 546 0.740 10000.000 0.000 0.154
69 207.00 1500.01 361 537 0.740 10000.000 0.000 0.154
70 210.00 1500.01 350 556 0.740 10000.000 0.000 0.154
71 213.00 1500.01 298 561 0.740 10000.000 0.000 0.154
72 216.00 1500.01 321 590 0.740 10000.000 0.000 0.154
73 219.00 1500.01 331 641 0.740 10000.000 0.000 0.154
74 222.00 1500.01 295 646 0.740 10000.000 0.000 0.154
75 225.00 1500.01 305 695 0.740 10000.000 0.000 0.154
76 228.00 1500.01 304 724 0.740 10000.000 0.000 0.154
77 231.00 1500.01 327 777 0.740 10000.000 0.000 0.154
78 234.00 1500.01 284 813 0.740 10000.000 0.000 0.154
79 237.00 1500.01 281 807 0.740 10000.000 0.000 0.154
80 240.00 1500.01 313 855 0.740 10000.000 0.000 0.154
81 243.00 1500.01 288 849 0.740 10000.000 0.000 0.154
82 246.00 1500.01 307 831 0.740 10000.000 0.000 0.154
83 249.00 1500.01 309 884 0.740 10000.000 0.000 0.154
84 252.00 1500.01 343 876 0.740 10000.000 0.000 0.154
85 255.00 1500.01 304 864 0.740 10000.000 0.000 0.154
86 258.00 1500.01 317 897 0.740 10000.000 0.000 0.154
87 261.00 1500.01 387 801 0.740 10000.000 0.000 0.154
88 264.00 1500.01 355 772 0.740 10000.000 0.000 0.154
89 267.00 1500.01 352 742 0.740 10000.000 0.000 0.154
90 270.00 1500.01 376 751 0.740 10000.000 0.000 0.154
91 273.00 1500.01 374 688 0.740 10000.000 0.000 0.154
92 276.00 1500.01 348 703 0.740 10000.000 0.000 0.154
93 279.00 1500.01 340 647 0.740 10000.000 0.000 0.154
94 282.00 1500.01 377 611 0.740 10000.000 0.000 0.154
95 285.00 1500.01 346 574 0.740 10000.000 0.000 0.154
96 288.00 1500.01 352 547 0.740 10000.000 0.000 0.154
97 291.00 1500.01 367 490 0.740 10000.000 0.000 0.154
98 294.00 1500.01 340 558 0.740 10000.000 0.000 0.154
99 297.00 1500.01 357 512 0.740 10000.000 0.000 0.154
100 300.00 1500.01 334 539 0.740 10000.000 0.000 0.154
101 303.00 1500.01 330 503 0.740 10000.000 0.000 0.154
102 306.00 1500.01 321 509 0.740 10000.000 0.000 0.154
103 309.00 1500.01 337 523 0.740 10000.000 0.000 0.154
104 312.00 1500.01 354 590 0.740 10000.000 0.000 0.154
105 315.00 1500.01 359 599 0.740 10000.000 0.000 0.154
106 318.00 1500.01 372 682 0.740 10000.000 0.000 0.154
107 321.00 1500.01 331 653 0.740 10000.000 0.000 0.154
108 324.00 1500.01 368 731 0.740 10000.000 0.000 0.154
109 327.00 1500.01 354 788 0.740 10000.000 0.000 0.154
110 330.00 1500.01 391 791 0.740 10000.000 0.000 0.154
111 333.00 1500.01 335 783 0.740 10000.000 0.000 0.154
112 336.00 1500.01 328 817 0.740 10000.000 0.000 0.154
113 339.00 1500.01 376 819 0.740 10000.000 0.000 0.154
114 342.00 1500.01 337 849 0.740 10000.000 0.000 0.154
115 345.00 1500.01 339 813 0.740 10000.000 0.000 0.154
116 348.00 1500.01 336 881 0.740 10000.000 0.000 0.154
117 351.00 1500.01 308 819 0.740 10000.000 0.000 0.154
118 354.00 1500.01 327 856 0.740 10000.000 0.000 0.154
119 357.00 1500.01 323 847 0.740 10000.000 0.000 0.154
120 360.00 1500.01 284 846 0.740 10000.000 0.000 0.154
121 363.00 1500.01 299 812 0.740 10000.000 0.000 0.154
122 366.00 1500.01 283 764 0.740 10000.000 0.000 0.154
123 369.00 1500.01 279 766 0.740 10000.000 0.000 0.154
124 372.00 1500.01 307 697 0.740 10000.000 0.000 0.154
125 375.00 1500.01 287 665 0.740 10000.000 0.000 0.154
126 378.00 1500.01 318 661 0.740 10000.000 0.000 0.154
127 381.00 1500.01 294 572 0.740 10000.000 0.000 0.154
128 384.00 1500.01 298 627 0.740 10000.000 0.000 0.154
129 387.00 1500.01 292 571 0.740 10000.000 0.000 0.154
130 390.00 1500.01 336 548 0.740 10000.000 0.000 0.154
131 393.00 1500.01 321 499 0.740 10000.000 0.000 0.154
132 396.00 1500.01 357 535 0.740 10000.000 0.000 0.154
133 399.00 1500.01 332 528 0.740 10000.000 0.000 0.154
134 402.00 1500.01 352 538 0.740 10000.000 0.000 0.154
135 405.00 1500.01 355 502 0.740 10000.000 0.000 0.154
136 408.00 1500.01 388 531 0.740 10000.000 0.000 0.154
137 411.00 1500.01 368 533 0.740 10000.000 0.000 0.154
138 414.00 1500.01 386 628 0.740 10000.000 0.000 0.154
139 417.00 1500.01 372 657 0.740 10000.000 0.000 0.154
140 420.00 1500.01 389 688 0.740 10000.000 0.000 0.154
141 423.00 1500.01 367 691 0.740 10000.000 0.000 0.154
142 426.00 1500.01 384 722 0.740 10000.000 0.000 0.154
143 429.00 1500.01 337 756 0.740 10000.000 0.000 0.154
144 432.00 1500.01 356 850 0.740 10000.000 0.000 0.154
