# BinNR microsec tot-time (s)  O-Beam AUX Ampl(V) f(Hz) phase(deg) chi(pos)
0 0.00 1500.00 141 471 0.740 10000.000 0.000 1.494
1 3.00 1500.00 257 832 0.740 10000.000 0.000 1.494
2 6.00 1500.00 265 801 0.740 10000.000 0.000 1.494
3 9.00 1500.00 303 801 0.740 10000.000 0.000 1.494
4 12.00 1500.00 306 818 0.740 10000.000 0.000 1.494
5 15.00 1500.00 280 843 0.740 10000.000 0.000 1.494
6 18.00 1500.00 297 869 0.740 10000.000 0.000 1.494
7 21.00 1500.00 365 857 0.740 10000.000 0.000 1.494
8 24.00 1500.00 303 856 0.740 10000.000 0.000 1.494
9 27.00 1500.00 349 946 0.740 10000.000 0.000 1.494
10 30.00 1500.00 353 933 0.740 10000.000 0.000 1.494
11 33.00 1500.00 336 870 0.740 10000.000 0.000 1.494
12 36.00 1500.00 307 868 0.740 10000.000 0.000 1.494
13 39.00 1500.00 320 908 0.740 10000.000 0.000 1.494
14 42.00 1500.00 337 896 0.740 10000.000 0.000 1.494
15 45.00 1500.00 342 805 0.740 10000.000 0.000 1.494
16 48.00 1500.00 322 904 0.740 10000.000 0.000 1.494
17 51.00 1500.00 320 781 0.740 10000.000 0.000 1.494
18 54.00 1500.00 315 851 0.740 10000.000 0.000 1.494
19 57.00 1500.00 314 823 0.740 10000.000 0.000 1.494
20 60.00 1500.00 293 862 0.740 10000.000 0.000 1.494
21 63.00 1500.00 271 860 0.740 10000.000 0.000 1.494
22 66.00 1500.00 297 858 0.740 10000.000 0.000 1.494
23 69.00 1500.00 247 892 0.740 10000.000 0.000 1.494
24 72.00 1500.00 269 923 0.740 10000.000 0.000 1.494
25 75.00 1500.00 276 975 0.740 10000.000 0.000 1.494
26 78.00 1500.00 283 954 0.740 10000.000 0.000 1.494
27 81.00 1500.00 260 938 0.740 10000.000 0.000 1.494
28 84.00 1500.00 219 946 0.740 10000.000 0.000 1.494
29 87.00 1500.00 245 988 0.740 10000.000 0.000 1.494
30 90.00 1500.00 276 967 0.740 10000.000 0.000 1.494
31 93.00 1500.00 271 1046 0.740 10000.000 0.000 1.494
32 96.00 1500.00 254 1097 0.740 10000.000 0.000 1.494
33 99.00 1500.00 245 1018 0.740 10000.000 0.000 1.494
34 102.00 1500.00 267 1023 0.740 10000.000 0.000 1.494
35 105.00 1500.00 301 956 0.740 10000.000 0.000 1.494
36 108.00 1500.00 302 981 0.740 10000.000 0.000 1.494
37 111.00 1500.00 279 955 0.740 10000.000 0.000 1.494
38 114.00 1500.00 303 975 0.740 10000.000 0.000 1.494
39 117.00 1500.00 287 982 0.740 10000.000 0.000 1.494
40 120.00 1500.00 317 925 0.740 10000.000 0.000 1.494
41 123.00 1500.00 320 916 0.740 10000.000 0.000 1.494
42 126.00 1500.00 325 940 0.740 10000.000 0.000 1.494
43 129.00 1500.00 319 862 0.740 10000.000 0.000 1.494
44 132.00 1500.00 313 825 0.740 10000.000 0.000 1.494
45 135.00 1500.00 371 784 0.740 10000.000 0.000 1.494
46 138.00 1500.00 334 788 0.740 10000.000 0.000 1.494
47 141.00 1500.00 327 810 0.740 10000.000 0.000 1.494
48 144.00 1500.00 316 760 0.740 10000.000 0.000 1.494
49 147.00 1500.00 348 740 0.740 10000.000 0.000 1.494
50 150.00 1500.00 332 771 0.740 10000.000 0.000 1.494
51 153.00 1500.00 317 775 0.740 10000.000 0.000 1.494
52 156.00 1500.00 324 805 0.740 10000.000 0.000 1.494
53 159.00 1500.00 277 768 0.740 10000.000 0.000 1.494
54 162.00 1500.00 327 797 0.740 10000.000 0.000 1.494
55 165.00 1500.00 273 767 0.740 10000.000 0.000 1.494
56 168.00 1500.00 282 914 0.740 10000.000 0.000 1.494
57 171.00 1500.00 226 850 0.740 10000.000 0.000 1.494
58 174.00 1500.00 264 947 0.740 10000.000 0.000 1.494
59 177.00 1500.00 211 962 0.740 10000.000 0.000 1.494
60 180.00 1500.00 249 954 0.740 10000.000 0.000 1.494
61 183.00 1500.00 228 1018 0.740 10000.000 0.000 1.494
62 186.00 1500.00 250 997 0.740 10000.000 0.000 1.494
63 189.00 1500.00 252 1037 0.740 10000.000 0.000 1.494
64 192.00 1500.00 253 983 0.740 10000.000 0.000 1.494
65 195.00 1500.00 248 1009 0.740 10000.000 0.000 1.494
66 198.00 1500.00 277 1042 0.740 10000.000 0.000 1.494
67 201.00 1500.00 275 940 0.740 10000.000 0.000 1.494
68 204.00 1500.00 292 1059 0.740 10000.000 0.000 1.494
69 207.00 1500.00 296 1022 0.740 10000.000 0.000 1.494
70 210.00 1500.00 290 960 0.740 10000.000 0.000 1.494
71 213.00 1500.00 292 953 0.740 10000.000 0.000 1.494
72 216.00 1500.00 305 927 0.740 10000.000 0.000 1.494
73 219.00 1500.00 312 944 0.740 10000.000 0.000 1.494
74 222.00 1500.00 340 915 0.740 10000.000 0.000 1.494
75 225.00 1500.00 300 875 0.740 10000.000 0.000 1.494
76 228.00 1500.00 354 841 0.740 10000.000 0.000 1.494
77 231.00 1500.00 324 862 0.740 10000.000 0.000 1.494
78 234.00 1500.00 339 862 0.740 10000.000 0.000 1.494
79 237.00 1500.00 323 831 0.740 10000.000 0.000 1.494
80 240.00 1500.00 348 779 0.740 10000.000 0.000 1.494
81 243.00 1500.00 312 755 0.740 10000.000 0.000 1.494
82 246.00 1500.00 311 762 0.740 10000.000 0.000 1.494
83 249.00 1500.00 337 696 0.740 10000.000 0.000 1.494
84 252.00 1500.00 307 809 0.740 10000.000 0.000 1.494
85 255.00 1500.00 306 781 0.740 10000.000 0.000 1.494
86 258.00 1500.00 309 799 0.740 10000.000 0.000 1.494
87 261.00 1500.00 304 781 0.740 10000.000 0.000 1.494
88 264.00 1500.00 265 821 0.740 10000.000 0.000 1.494
89 267.00 1500.00 298 845 0.740 10000.000 0.000 1.494
90 270.00 1500.00 249 867 0.740 10000.000 0.000 1.494
91 273.00 1500.00 251 907 0.740 10000.000 0.000 1.494
92 276.00 1500.00 260 919 0.740 10000.000 0.000 1.494
93 279.00 1500.00 273 998 0.740 10000.000 0.000 1.494
94 282.00 1500.00 273 990 0.740 10000.000 0.000 1.494
95 285.00 1500.00 269 956 0.740 10000.000 0.000 1.494
96 288.00 1500.00 291 1013 0.740 10000.000 0.000 1.494
97 291.00 1500.00 239 1019 0.740 10000.000 0.000 1.494
98 294.00 1500.00 254 1038 0.740 10000.000 0.000 1.494
99 297.00 1500.00 288 1005 0.740 10000.000 0.000 1.494
100 300.00 1500.00 271 1019 0.740 10000.000 0.000 1.494
101 303.00 1500.00 272 1029 0.740 10000.000 0.000 1.494
102 306.00 1500.00 300 1040 0.740 10000.000 0.000 1.494
103 309.00 1500.00 267 944 0.740 10000.000 0.000 1.494
104 312.00 1500.00 287 918 0.740 10000.000 0.000 1.494
105 315.00 1500.00 263 914 0.740 10000.000 0.000 1.494
106 318.00 1500.00 276 992 0.740 10000.000 0.000 1.494
107 321.00 1500.00 268 867 0.740 10000.000 0.000 1.494
108 324.00 1500.00 285 894 0.740 10000.000 0.000 1.494
109 327.00 1500.00 266 850 0.740 10000.000 0.000 1.494
110 330.00 1500.00 260 853 0.740 10000.000 0.000 1.494
111 333.00 1500.00 266 866 0.740 10000.000 0.000 1.494
112 336.00 1500.00 266 807 0.740 10000.000 0.000 1.494
113 339.00 1500.00 277 762 0.740 10000.000 0.000 1.494
114 342.00 1500.00 270 806 0.740 10000.000 0.000 1.494
115 345.00 1500.00 312 791 0.740 10000.000 0.000 1.494
116 348.00 1500.00 281 776 0.740 10000.000 0.000 1.494
117 351.00 1500.00 323 775 0.740 10000.000 0.000 1.494
118 354.00 1500.00 324 764 0.740 10000.000 0.000 1.494
119 357.00 1500.00 316 791 0.740 10000.000 0.000 1.494
120 360.00 1500.00 338 861 0.740 10000.000 0.000 1.494
121 363.00 1500.00 336 883 0.740 10000.000 0.000 1.494
122 366.00 1500.00 321 909 0.740 10000.000 0.000 1.494
123 369.00 1500.00 355 928 0.740 10000.000 0.000 1.494
124 372.00 1500.00 332 871 0.740 10000.000 0.000 1.494
125 375.00 1500.00 351 931 0.740 10000.000 0.000 1.494
126 378.00 1500.00 302 932 0.740 10000.000 0.000 1.494
127 381.00 1500.00 316 915 0.740 10000.000 0.000 1.494
128 384.00 1500.00 332 1080 0.740 10000.000 0.000 1.494
129 387.00 1500.00 328 1047 0.740 10000.000 0.000 1.494
130 390.00 1500.00 303 1017 0.740 10000.000 0.000 1.494
131 393.00 1500.00 314 995 0.740 10000.000 0.000 1.494
132 396.00 1500.00 296 1045 0.740 10000.000 0.000 1.494
133 399.00 1500.00 285 993 0.740 10000.000 0.000 1.494
134 402.00 1500.00 291 1017 0.740 10000.000 0.000 1.494
135 405.00 1500.00 273 1006 0.740 10000.000 0.000 1.494
136 408.00 1500.00 280 983 0.740 10000.000 0.000 1.494
137 411.00 1500.00 245 998 0.740 10000.000 0.000 1.494
138 414.00 1500.00 272 1049 0.740 10000.000 0.000 1.494
139 417.00 1500.00 267 936 0.740 10000.000 0.000 1.494
140 420.00 1500.00 227 989 0.740 10000.000 0.000 1.494
141 423.00 1500.00 246 871 0.740 10000.000 0.000 1.494
142 426.00 1500.00 259 898 0.740 10000.000 0.000 1.494
143 429.00 1500.00 252 893 0.740 10000.000 0.000 1.494
144 432.00 1500.00 287 841 0.740 10000.000 0.000 1.494
