# BinNR microsec tot-time (s)  O-Beam AUX Ampl(V) f(Hz) phase(deg) chi(pos)
0 0.00 1500.01 139 441 0.740 10000.000 0.000 -0.681
1 3.00 1500.01 270 849 0.740 10000.000 0.000 -0.681
2 6.00 1500.01 303 915 0.740 10000.000 0.000 -0.681
3 9.00 1500.01 268 907 0.740 10000.000 0.000 -0.681
4 12.00 1500.01 311 913 0.740 10000.000 0.000 -0.681
5 15.00 1500.01 307 922 0.740 10000.000 0.000 -0.681
6 18.00 1500.01 300 969 0.740 10000.000 0.000 -0.681
7 21.00 1500.01 324 914 0.740 10000.000 0.000 -0.681
8 24.00 1500.01 343 983 0.740 10000.000 0.000 -0.681
9 27.00 1500.01 330 1004 0.740 10000.000 0.000 -0.681
10 30.00 1500.01 343 1062 0.740 10000.000 0.000 -0.681
11 33.00 1500.01 343 1031 0.740 10000.000 0.000 -0.681
12 36.00 1500.01 365 1025 0.740 10000.000 0.000 -0.681
13 39.00 1500.01 337 1029 0.740 10000.000 0.000 -0.681
14 42.00 1500.01 356 980 0.740 10000.000 0.000 -0.681
15 45.00 1500.01 333 982 0.740 10000.000 0.000 -0.681
16 48.00 1500.01 341 947 0.740 10000.000 0.000 -0.681
17 51.00 1500.01 360 913 0.740 10000.000 0.000 -0.681
18 54.00 1500.01 316 919 0.740 10000.000 0.000 -0.681
19 57.00 1500.01 314 934 0.740 10000.000 0.000 -0.681
20 60.00 1500.01 308 958 0.740 10000.000 0.000 -0.681
21 63.00 1500.01 271 988 0.740 10000.000 0.000 -0.681
22 66.00 1500.01 279 914 0.740 10000.000 0.000 -0.681
23 69.00 1500.01 240 965 0.740 10000.000 0.000 -0.681
24 72.00 1500.01 270 1029 0.740 10000.000 0.000 -0.681
25 75.00 1500.01 259 1036 0.740 10000.000 0.000 -0.681
26 78.00 1500.01 267 1067 0.740 10000.000 0.000 -0.681
27 81.00 1500.01 272 1109 0.740 10000.000 0.000 -0.681
28 84.00 1500.01 282 1075 0.740 10000.000 0.000 -0.681
29 87.00 1500.01 243 1128 0.740 10000.000 0.000 -0.681
30 90.00 1500.01 272 1074 0.740 10000.000 0.000 -0.681
31 93.00 1500.01 270 1144 0.740 10000.000 0.000 -0.681
32 96.00 1500.01 274 1163 0.740 10000.000 0.000 -0.681
33 99.00 1500.01 290 1181 0.740 10000.000 0.000 -0.681
34 102.00 1500.01 285 1099 0.740 10000.000 0.000 -0.681
35 105.00 1500.01 293 1113 0.740 10000.000 0.000 -0.681
36 108.00 1500.01 307 1145 0.740 10000.000 0.000 -0.681
37 111.00 1500.01 330 1012 0.740 10000.000 0.000 -0.681
38 114.00 1500.01 322 1126 0.740 10000.000 0.000 -0.681
39 117.00 1500.01 302 1003 0.740 10000.000 0.000 -0.681
40 120.00 1500.01 339 1008 0.740 10000.000 0.000 -0.681
41 123.00 1500.01 314 1062 0.740 10000.000 0.000 -0.681
42 126.00 1500.01 355 1015 0.740 10000.000 0.000 -0.681
43 129.00 1500.01 335 952 0.740 10000.000 0.000 -0.681
44 132.00 1500.01 333 981 0.740 10000.000 0.000 -0.681
45 135.00 1500.01 327 873 0.740 10000.000 0.000 -0.681
46 138.00 1500.01 386 934 0.740 10000.000 0.000 -0.681
47 141.00 1500.01 343 888 0.740 10000.000 0.000 -0.681
48 144.00 1500.01 371 863 0.740 10000.000 0.000 -0.681
49 147.00 1500.01 325 888 0.740 10000.000 0.000 -0.681
50 150.00 1500.01 326 945 0.740 10000.000 0.000 -0.681
51 153.00 1500.01 353 866 0.740 10000.000 0.000 -0.681
52 156.00 1500.01 315 872 0.740 10000.000 0.000 -0.681
53 159.00 1500.01 310 832 0.740 10000.000 0.000 -0.681
54 162.00 1500.01 278 949 0.740 10000.000 0.000 -0.681
55 165.00 1500.01 274 964 0.740 10000.000 0.000 -0.681
56 168.00 1500.01 290 928 0.740 10000.000 0.000 -0.681
57 171.00 1500.01 288 999 0.740 10000.000 0.000 -0.681
58 174.00 1500.01 243 1061 0.740 10000.000 0.000 -0.681
59 177.00 1500.01 246 1003 0.740 10000.000 0.000 -0.681
60 180.00 1500.01 282 1061 0.740 10000.000 0.000 -0.681
61 183.00 1500.01 257 1120 0.740 10000.000 0.000 -0.681
62 186.00 1500.01 231 1124 0.740 10000.000 0.000 -0.681
63 189.00 1500.01 234 1101 0.740 10000.000 0.000 -0.681
64 192.00 1500.01 207 1099 0.740 10000.000 0.000 -0.681
65 195.00 1500.01 277 1093 0.740 10000.000 0.000 -0.681
66 198.00 1500.01 299 1172 0.740 10000.000 0.000 -0.681
67 201.00 1500.01 274 1054 0.740 10000.000 0.000 -0.681
68 204.00 1500.01 271 1141 0.740 10000.000 0.000 -0.681
69 207.00 1500.01 286 1168 0.740 10000.000 0.000 -0.681
70 210.00 1500.01 280 1094 0.740 10000.000 0.000 -0.681
71 213.00 1500.01 321 1083 0.740 10000.000 0.000 -0.681
72 216.00 1500.01 320 1085 0.740 10000.000 0.000 -0.681
73 219.00 1500.01 305 1045 0.740 10000.000 0.000 -0.681
74 222.00 1500.01 315 1017 0.740 10000.000 0.000 -0.681
75 225.00 1500.01 318 949 0.740 10000.000 0.000 -0.681
76 228.00 1500.01 327 974 0.740 10000.000 0.000 -0.681
77 231.00 1500.01 340 917 0.740 10000.000 0.000 -0.681
78 234.00 1500.01 365 895 0.740 10000.000 0.000 -0.681
79 237.00 1500.01 340 845 0.740 10000.000 0.000 -0.681
80 240.00 1500.01 369 818 0.740 10000.000 0.000 -0.681
81 243.00 1500.01 359 896 0.740 10000.000 0.000 -0.681
82 246.00 1500.01 346 910 0.740 10000.000 0.000 -0.681
83 249.00 1500.01 337 850 0.740 10000.000 0.000 -0.681
84 252.00 1500.01 350 923 0.740 10000.000 0.000 -0.681
85 255.00 1500.01 365 832 0.740 10000.000 0.000 -0.681
86 258.00 1500.01 308 904 0.740 10000.000 0.000 -0.681
87 261.00 1500.01 302 936 0.740 10000.000 0.000 -0.681
88 264.00 1500.01 317 902 0.740 10000.000 0.000 -0.681
89 267.00 1500.01 274 956 0.740 10000.000 0.000 -0.681
90 270.00 1500.01 292 955 0.740 10000.000 0.000 -0.681
91 273.00 1500.01 281 978 0.740 10000.000 0.000 -0.681
92 276.00 1500.01 282 1045 0.740 10000.000 0.000 -0.681
93 279.00 1500.01 281 1078 0.740 10000.000 0.000 -0.681
94 282.00 1500.01 279 1127 0.740 10000.000 0.000 -0.681
95 285.00 1500.01 283 1058 0.740 10000.000 0.000 -0.681
96 288.00 1500.01 287 1173 0.740 10000.000 0.000 -0.681
97 291.00 1500.01 278 1080 0.740 10000.000 0.000 -0.681
98 294.00 1500.01 281 1139 0.740 10000.000 0.000 -0.681
99 297.00 1500.01 291 1106 0.740 10000.000 0.000 -0.681
100 300.00 1500.01 282 1106 0.740 10000.000 0.000 -0.681
101 303.00 1500.01 303 1115 0.740 10000.000 0.000 -0.681
102 306.00 1500.01 299 1172 0.740 10000.000 0.000 -0.681
103 309.00 1500.01 324 1027 0.740 10000.000 0.000 -0.681
104 312.00 1500.01 275 1078 0.740 10000.000 0.000 -0.681
105 315.00 1500.01 297 1091 0.740 10000.000 0.000 -0.681
106 318.00 1500.01 288 1015 0.740 10000.000 0.000 -0.681
107 321.00 1500.01 287 1005 0.740 10000.000 0.000 -0.681
108 324.00 1500.01 258 961 0.740 10000.000 0.000 -0.681
109 327.00 1500.01 276 957 0.740 10000.000 0.000 -0.681
110 330.00 1500.01 341 940 0.740 10000.000 0.000 -0.681
111 333.00 1500.01 304 944 0.740 10000.000 0.000 -0.681
112 336.00 1500.01 274 889 0.740 10000.000 0.000 -0.681
113 339.00 1500.01 306 928 0.740 10000.000 0.000 -0.681
114 342.00 1500.01 293 837 0.740 10000.000 0.000 -0.681
115 345.00 1500.01 311 838 0.740 10000.000 0.000 -0.681
116 348.00 1500.01 328 879 0.740 10000.000 0.000 -0.681
117 351.00 1500.01 327 850 0.740 10000.000 0.000 -0.681
118 354.00 1500.01 326 900 0.740 10000.000 0.000 -0.681
119 357.00 1500.01 327 859 0.740 10000.000 0.000 -0.681
120 360.00 1500.01 329 873 0.740 10000.000 0.000 -0.681
121 363.00 1500.01 344 909 0.740 10000.000 0.000 -0.681
122 366.00 1500.01 355 921 0.740 10000.000 0.000 -0.681
123 369.00 1500.01 361 920 0.740 10000.000 0.000 -0.681
124 372.00 1500.01 356 951 0.740 10000.000 0.000 -0.681
125 375.00 1500.01 341 985 0.740 10000.000 0.000 -0.681
126 378.00 1500.01 413 1069 0.740 10000.000 0.000 -0.681
127 381.00 1500.01 314 1058 0.740 10000.000 0.000 -0.681
128 384.00 1500.01 350 1102 0.740 10000.000 0.000 -0.681
129 387.00 1500.01 324 1006 0.740 10000.000 0.000 -0.681
130 390.00 1500.01 339 1163 0.740 10000.000 0.000 -0.681
131 393.00 1500.01 290 1093 0.740 10000.000 0.000 -0.681
132 396.00 1500.01 312 1115 0.740 10000.000 0.000 -0.681
133 399.00 1500.01 271 1168 0.740 10000.000 0.000 -0.681
134 402.00 1500.01 275 1143 0.740 10000.000 0.000 -0.681
135 405.00 1500.01 253 1120 0.740 10000.000 0.000 -0.681
136 408.00 1500.01 283 1124 0.740 10000.000 0.000 -0.681
137 411.00 1500.01 251 1094 0.740 10000.000 0.000 -0.681
138 414.00 1500.01 260 1129 0.740 10000.000 0.000 -0.681
139 417.00 1500.01 259 1002 0.740 10000.000 0.000 -0.681
140 420.00 1500.01 260 1030 0.740 10000.000 0.000 -0.681
141 423.00 1500.01 289 961 0.740 10000.000 0.000 -0.681
142 426.00 1500.01 249 1001 0.740 10000.000 0.000 -0.681
143 429.00 1500.01 265 976 0.740 10000.000 0.000 -0.681
144 432.00 1500.01 253 941 0.740 10000.000 0.000 -0.681
