# BinNR microsec tot-time (s)  O-Beam AUX Ampl(V) f(Hz) phase(deg) chi(pos)
0 0.00 1500.01 66 201 0.740 10000.000 0.000 -1.011
1 3.00 1500.01 140 352 0.740 10000.000 0.000 -1.011
2 6.00 1500.01 173 355 0.740 10000.000 0.000 -1.011
3 9.00 1500.01 164 374 0.740 10000.000 0.000 -1.011
4 12.00 1500.01 150 338 0.740 10000.000 0.000 -1.011
5 15.00 1500.01 155 378 0.740 10000.000 0.000 -1.011
6 18.00 1500.01 145 427 0.740 10000.000 0.000 -1.011
7 21.00 1500.01 169 417 0.740 10000.000 0.000 -1.011
8 24.00 1500.01 184 470 0.740 10000.000 0.000 -1.011
9 27.00 1500.01 198 502 0.740 10000.000 0.000 -1.011
10 30.00 1500.01 198 447 0.740 10000.000 0.000 -1.011
11 33.00 1500.01 176 446 0.740 10000.000 0.000 -1.011
12 36.00 1500.01 197 481 0.740 10000.000 0.000 -1.011
13 39.00 1500.01 191 434 0.740 10000.000 0.000 -1.011
14 42.00 1500.01 173 454 0.740 10000.000 0.000 -1.011
15 45.00 1500.01 189 462 0.740 10000.000 0.000 -1.011
16 48.00 1500.01 166 438 0.740 10000.000 0.000 -1.011
17 51.00 1500.01 147 401 0.740 10000.000 0.000 -1.011
18 54.00 1500.01 168 372 0.740 10000.000 0.000 -1.011
19 57.00 1500.01 162 353 0.740 10000.000 0.000 -1.011
20 60.00 1500.01 151 370 0.740 10000.000 0.000 -1.011
21 63.00 1500.01 161 382 0.740 10000.000 0.000 -1.011
22 66.00 1500.01 142 368 0.740 10000.000 0.000 -1.011
23 69.00 1500.01 117 424 0.740 10000.000 0.000 -1.011
24 72.00 1500.01 114 411 0.740 10000.000 0.000 -1.011
25 75.00 1500.01 121 491 0.740 10000.000 0.000 -1.011
26 78.00 1500.01 110 573 0.740 10000.000 0.000 -1.011
27 81.00 1500.01 123 568 0.740 10000.000 0.000 -1.011
28 84.00 1500.01 120 579 0.740 10000.000 0.000 -1.011
29 87.00 1500.01 115 564 0.740 10000.000 0.000 -1.011
30 90.00 1500.01 128 655 0.740 10000.000 0.000 -1.011
31 93.00 1500.01 128 609 0.740 10000.000 0.000 -1.011
32 96.00 1500.01 141 604 0.740 10000.000 0.000 -1.011
33 99.00 1500.01 130 660 0.740 10000.000 0.000 -1.011
34 102.00 1500.01 127 625 0.740 10000.000 0.000 -1.011
35 105.00 1500.01 124 669 0.740 10000.000 0.000 -1.011
36 108.00 1500.01 127 653 0.740 10000.000 0.000 -1.011
37 111.00 1500.01 156 577 0.740 10000.000 0.000 -1.011
38 114.00 1500.01 157 591 0.740 10000.000 0.000 -1.011
39 117.00 1500.01 143 499 0.740 10000.000 0.000 -1.011
40 120.00 1500.01 180 485 0.740 10000.000 0.000 -1.011
41 123.00 1500.01 178 446 0.740 10000.000 0.000 -1.011
42 126.00 1500.01 191 439 0.740 10000.000 0.000 -1.011
43 129.00 1500.01 170 413 0.740 10000.000 0.000 -1.011
44 132.00 1500.01 146 393 0.740 10000.000 0.000 -1.011
45 135.00 1500.01 158 357 0.740 10000.000 0.000 -1.011
46 138.00 1500.01 182 343 0.740 10000.000 0.000 -1.011
47 141.00 1500.01 179 293 0.740 10000.000 0.000 -1.011
48 144.00 1500.01 187 344 0.740 10000.000 0.000 -1.011
49 147.00 1500.01 179 329 0.740 10000.000 0.000 -1.011
50 150.00 1500.01 163 371 0.740 10000.000 0.000 -1.011
51 153.00 1500.01 164 350 0.740 10000.000 0.000 -1.011
52 156.00 1500.01 178 373 0.740 10000.000 0.000 -1.011
53 159.00 1500.01 144 368 0.740 10000.000 0.000 -1.011
54 162.00 1500.01 134 388 0.740 10000.000 0.000 -1.011
55 165.00 1500.01 144 385 0.740 10000.000 0.000 -1.011
56 168.00 1500.01 152 403 0.740 10000.000 0.000 -1.011
57 171.00 1500.01 132 439 0.740 10000.000 0.000 -1.011
58 174.00 1500.01 128 508 0.740 10000.000 0.000 -1.011
59 177.00 1500.01 128 549 0.740 10000.000 0.000 -1.011
60 180.00 1500.01 133 521 0.740 10000.000 0.000 -1.011
61 183.00 1500.01 138 563 0.740 10000.000 0.000 -1.011
62 186.00 1500.01 113 626 0.740 10000.000 0.000 -1.011
63 189.00 1500.01 125 630 0.740 10000.000 0.000 -1.011
64 192.00 1500.01 109 675 0.740 10000.000 0.000 -1.011
65 195.00 1500.01 138 607 0.740 10000.000 0.000 -1.011
66 198.00 1500.01 121 628 0.740 10000.000 0.000 -1.011
67 201.00 1500.01 123 634 0.740 10000.000 0.000 -1.011
68 204.00 1500.01 132 616 0.740 10000.000 0.000 -1.011
69 207.00 1500.01 138 621 0.740 10000.000 0.000 -1.011
70 210.00 1500.01 144 606 0.740 10000.000 0.000 -1.011
71 213.00 1500.01 157 612 0.740 10000.000 0.000 -1.011
72 216.00 1500.01 176 563 0.740 10000.000 0.000 -1.011
73 219.00 1500.01 171 489 0.740 10000.000 0.000 -1.011
74 222.00 1500.01 206 526 0.740 10000.000 0.000 -1.011
75 225.00 1500.01 174 459 0.740 10000.000 0.000 -1.011
76 228.00 1500.01 175 428 0.740 10000.000 0.000 -1.011
77 231.00 1500.01 163 382 0.740 10000.000 0.000 -1.011
78 234.00 1500.01 182 353 0.740 10000.000 0.000 -1.011
79 237.00 1500.01 176 347 0.740 10000.000 0.000 -1.011
80 240.00 1500.01 174 327 0.740 10000.000 0.000 -1.011
81 243.00 1500.01 184 285 0.740 10000.000 0.000 -1.011
82 246.00 1500.01 185 332 0.740 10000.000 0.000 -1.011
83 249.00 1500.01 172 316 0.740 10000.000 0.000 -1.011
84 252.00 1500.01 159 331 0.740 10000.000 0.000 -1.011
85 255.00 1500.01 169 335 0.740 10000.000 0.000 -1.011
86 258.00 1500.01 156 356 0.740 10000.000 0.000 -1.011
87 261.00 1500.01 164 388 0.740 10000.000 0.000 -1.011
88 264.00 1500.01 138 398 0.740 10000.000 0.000 -1.011
89 267.00 1500.01 132 417 0.740 10000.000 0.000 -1.011
90 270.00 1500.01 142 505 0.740 10000.000 0.000 -1.011
91 273.00 1500.01 134 509 0.740 10000.000 0.000 -1.011
92 276.00 1500.01 139 540 0.740 10000.000 0.000 -1.011
93 279.00 1500.01 152 543 0.740 10000.000 0.000 -1.011
94 282.00 1500.01 137 570 0.740 10000.000 0.000 -1.011
95 285.00 1500.01 123 621 0.740 10000.000 0.000 -1.011
96 288.00 1500.01 147 589 0.740 10000.000 0.000 -1.011
97 291.00 1500.01 149 617 0.740 10000.000 0.000 -1.011
98 294.00 1500.01 107 679 0.740 10000.000 0.000 -1.011
99 297.00 1500.01 145 661 0.740 10000.000 0.000 -1.011
100 300.00 1500.01 149 652 0.740 10000.000 0.000 -1.011
101 303.00 1500.01 141 619 0.740 10000.000 0.000 -1.011
102 306.00 1500.01 158 623 0.740 10000.000 0.000 -1.011
103 309.00 1500.01 145 636 0.740 10000.000 0.000 -1.011
104 312.00 1500.01 125 582 0.740 10000.000 0.000 -1.011
105 315.00 1500.01 127 570 0.740 10000.000 0.000 -1.011
106 318.00 1500.01 134 561 0.740 10000.000 0.000 -1.011
107 321.00 1500.01 122 491 0.740 10000.000 0.000 -1.011
108 324.00 1500.01 140 451 0.740 10000.000 0.000 -1.011
109 327.00 1500.01 144 414 0.740 10000.000 0.000 -1.011
110 330.00 1500.01 124 434 0.740 10000.000 0.000 -1.011
111 333.00 1500.01 145 347 0.740 10000.000 0.000 -1.011
112 336.00 1500.01 137 392 0.740 10000.000 0.000 -1.011
113 339.00 1500.01 127 351 0.740 10000.000 0.000 -1.011
114 342.00 1500.01 152 351 0.740 10000.000 0.000 -1.011
115 345.00 1500.01 144 324 0.740 10000.000 0.000 -1.011
116 348.00 1500.01 163 313 0.740 10000.000 0.000 -1.011
117 351.00 1500.01 154 303 0.740 10000.000 0.000 -1.011
118 354.00 1500.01 178 330 0.740 10000.000 0.000 -1.011
119 357.00 1500.01 169 346 0.740 10000.000 0.000 -1.011
120 360.00 1500.01 194 342 0.740 10000.000 0.000 -1.011
121 363.00 1500.01 192 321 0.740 10000.000 0.000 -1.011
122 366.00 1500.01 187 395 0.740 10000.000 0.000 -1.011
123 369.00 1500.01 194 424 0.740 10000.000 0.000 -1.011
124 372.00 1500.01 190 444 0.740 10000.000 0.000 -1.011
125 375.00 1500.01 186 492 0.740 10000.000 0.000 -1.011
126 378.00 1500.01 188 576 0.740 10000.000 0.000 -1.011
127 381.00 1500.01 186 575 0.740 10000.000 0.000 -1.011
128 384.00 1500.01 191 596 0.740 10000.000 0.000 -1.011
129 387.00 1500.01 162 574 0.740 10000.000 0.000 -1.011
130 390.00 1500.01 166 648 0.740 10000.000 0.000 -1.011
131 393.00 1500.01 159 659 0.740 10000.000 0.000 -1.011
132 396.00 1500.01 138 649 0.740 10000.000 0.000 -1.011
133 399.00 1500.01 155 642 0.740 10000.000 0.000 -1.011
134 402.00 1500.01 123 696 0.740 10000.000 0.000 -1.011
135 405.00 1500.01 120 653 0.740 10000.000 0.000 -1.011
136 408.00 1500.01 146 619 0.740 10000.000 0.000 -1.011
137 411.00 1500.01 131 594 0.740 10000.000 0.000 -1.011
138 414.00 1500.01 118 562 0.740 10000.000 0.000 -1.011
139 417.00 1500.01 120 519 0.740 10000.000 0.000 -1.011
140 420.00 1500.01 105 499 0.740 10000.000 0.000 -1.011
141 423.00 1500.01 129 473 0.740 10000.000 0.000 -1.011
142 426.00 1500.01 128 445 0.740 10000.000 0.000 -1.011
143 429.00 1500.01 100 400 0.740 10000.000 0.000 -1.011
144 432.00 1500.01 113 398 0.740 10000.000 0.000 -1.011
