# BinNR microsec tot-time (s)  O-Beam AUX Ampl(V) f(Hz) phase(deg) chi(pos)
0 0.00 1500.02 201 624 0.740 10000.000 0.000 -0.165
1 3.00 1500.02 444 1203 0.740 10000.000 0.000 -0.165
2 6.00 1500.02 431 1206 0.740 10000.000 0.000 -0.165
3 9.00 1500.02 456 1157 0.740 10000.000 0.000 -0.165
4 12.00 1500.02 416 1215 0.740 10000.000 0.000 -0.165
5 15.00 1500.02 424 1231 0.740 10000.000 0.000 -0.165
6 18.00 1500.02 387 1152 0.740 10000.000 0.000 -0.165
7 21.00 1500.02 395 1135 0.740 10000.000 0.000 -0.165
8 24.00 1500.02 426 1118 0.740 10000.000 0.000 -0.165
9 27.00 1500.02 418 1119 0.740 10000.000 0.000 -0.165
10 30.00 1500.02 413 1173 0.740 10000.000 0.000 -0.165
11 33.00 1500.02 449 1110 0.740 10000.000 0.000 -0.165
12 36.00 1500.02 433 1175 0.740 10000.000 0.000 -0.165
13 39.00 1500.02 446 1132 0.740 10000.000 0.000 -0.165
14 42.00 1500.02 378 1122 0.740 10000.000 0.000 -0.165
15 45.00 1500.02 402 1141 0.740 10000.000 0.000 -0.165
16 48.00 1500.02 422 1169 0.740 10000.000 0.000 -0.165
17 51.00 1500.02 388 1190 0.740 10000.000 0.000 -0.165
18 54.00 1500.02 425 1243 0.740 10000.000 0.000 -0.165
19 57.00 1500.02 477 1222 0.740 10000.000 0.000 -0.165
20 60.00 1500.02 441 1157 0.740 10000.000 0.000 -0.165
21 63.00 1500.02 427 1114 0.740 10000.000 0.000 -0.165
22 66.00 1500.02 421 1122 0.740 10000.000 0.000 -0.165
23 69.00 1500.02 416 1176 0.740 10000.000 0.000 -0.165
24 72.00 1500.02 455 1147 0.740 10000.000 0.000 -0.165
25 75.00 1500.02 406 1109 0.740 10000.000 0.000 -0.165
26 78.00 1500.02 439 1196 0.740 10000.000 0.000 -0.165
27 81.00 1500.02 409 1097 0.740 10000.000 0.000 -0.165
28 84.00 1500.02 438 1060 0.740 10000.000 0.000 -0.165
29 87.00 1500.02 393 1047 0.740 10000.000 0.000 -0.165
30 90.00 1500.02 473 1069 0.740 10000.000 0.000 -0.165
31 93.00 1500.02 415 1049 0.740 10000.000 0.000 -0.165
32 96.00 1500.02 422 1014 0.740 10000.000 0.000 -0.165
33 99.00 1500.02 431 990 0.740 10000.000 0.000 -0.165
34 102.00 1500.02 430 1050 0.740 10000.000 0.000 -0.165
35 105.00 1500.02 438 1059 0.740 10000.000 0.000 -0.165
36 108.00 1500.02 444 1094 0.740 10000.000 0.000 -0.165
37 111.00 1500.02 417 1050 0.740 10000.000 0.000 -0.165
38 114.00 1500.02 411 1069 0.740 10000.000 0.000 -0.165
39 117.00 1500.02 378 1054 0.740 10000.000 0.000 -0.165
40 120.00 1500.02 433 1114 0.740 10000.000 0.000 -0.165
41 123.00 1500.02 416 1105 0.740 10000.000 0.000 -0.165
42 126.00 1500.02 409 1149 0.740 10000.000 0.000 -0.165
43 129.00 1500.02 424 1209 0.740 10000.000 0.000 -0.165
44 132.00 1500.02 397 1178 0.740 10000.000 0.000 -0.165
45 135.00 1500.02 419 1194 0.740 10000.000 0.000 -0.165
46 138.00 1500.02 429 1225 0.740 10000.000 0.000 -0.165
47 141.00 1500.02 400 1188 0.740 10000.000 0.000 -0.165
48 144.00 1500.02 433 1255 0.740 10000.000 0.000 -0.165
49 147.00 1500.02 412 1290 0.740 10000.000 0.000 -0.165
50 150.00 1500.02 441 1268 0.740 10000.000 0.000 -0.165
51 153.00 1500.02 431 1224 0.740 10000.000 0.000 -0.165
52 156.00 1500.02 452 1140 0.740 10000.000 0.000 -0.165
53 159.00 1500.02 406 1153 0.740 10000.000 0.000 -0.165
54 162.00 1500.02 425 1166 0.740 10000.000 0.000 -0.165
55 165.00 1500.02 442 1127 0.740 10000.000 0.000 -0.165
56 168.00 1500.02 439 1161 0.740 10000.000 0.000 -0.165
57 171.00 1500.02 431 1155 0.740 10000.000 0.000 -0.165
58 174.00 1500.02 421 1162 0.740 10000.000 0.000 -0.165
59 177.00 1500.02 434 1082 0.740 10000.000 0.000 -0.165
60 180.00 1500.02 440 1083 0.740 10000.000 0.000 -0.165
61 183.00 1500.02 432 1130 0.740 10000.000 0.000 -0.165
62 186.00 1500.02 452 1074 0.740 10000.000 0.000 -0.165
63 189.00 1500.02 413 1001 0.740 10000.000 0.000 -0.165
64 192.00 1500.02 427 970 0.740 10000.000 0.000 -0.165
65 195.00 1500.02 457 1049 0.740 10000.000 0.000 -0.165
66 198.00 1500.02 438 1003 0.740 10000.000 0.000 -0.165
67 201.00 1500.02 453 1006 0.740 10000.000 0.000 -0.165
68 204.00 1500.02 468 1049 0.740 10000.000 0.000 -0.165
69 207.00 1500.02 411 1057 0.740 10000.000 0.000 -0.165
70 210.00 1500.02 434 1096 0.740 10000.000 0.000 -0.165
71 213.00 1500.02 421 1113 0.740 10000.000 0.000 -0.165
72 216.00 1500.02 401 1138 0.740 10000.000 0.000 -0.165
73 219.00 1500.02 452 1087 0.740 10000.000 0.000 -0.165
74 222.00 1500.02 461 1133 0.740 10000.000 0.000 -0.165
75 225.00 1500.02 427 1118 0.740 10000.000 0.000 -0.165
76 228.00 1500.02 462 1180 0.740 10000.000 0.000 -0.165
77 231.00 1500.02 380 1175 0.740 10000.000 0.000 -0.165
78 234.00 1500.02 412 1237 0.740 10000.000 0.000 -0.165
79 237.00 1500.02 387 1161 0.740 10000.000 0.000 -0.165
80 240.00 1500.02 465 1174 0.740 10000.000 0.000 -0.165
81 243.00 1500.02 392 1310 0.740 10000.000 0.000 -0.165
82 246.00 1500.02 430 1228 0.740 10000.000 0.000 -0.165
83 249.00 1500.02 429 1207 0.740 10000.000 0.000 -0.165
84 252.00 1500.02 416 1222 0.740 10000.000 0.000 -0.165
85 255.00 1500.02 420 1284 0.740 10000.000 0.000 -0.165
86 258.00 1500.02 438 1232 0.740 10000.000 0.000 -0.165
87 261.00 1500.02 447 1209 0.740 10000.000 0.000 -0.165
88 264.00 1500.02 385 1215 0.740 10000.000 0.000 -0.165
89 267.00 1500.02 399 1165 0.740 10000.000 0.000 -0.165
90 270.00 1500.02 445 1174 0.740 10000.000 0.000 -0.165
91 273.00 1500.02 419 1177 0.740 10000.000 0.000 -0.165
92 276.00 1500.02 434 1151 0.740 10000.000 0.000 -0.165
93 279.00 1500.02 433 1115 0.740 10000.000 0.000 -0.165
94 282.00 1500.02 430 1112 0.740 10000.000 0.000 -0.165
95 285.00 1500.02 373 1020 0.740 10000.000 0.000 -0.165
96 288.00 1500.02 450 1127 0.740 10000.000 0.000 -0.165
97 291.00 1500.02 409 1038 0.740 10000.000 0.000 -0.165
98 294.00 1500.02 428 1066 0.740 10000.000 0.000 -0.165
99 297.00 1500.02 434 1005 0.740 10000.000 0.000 -0.165
100 300.00 1500.02 453 997 0.740 10000.000 0.000 -0.165
101 303.00 1500.02 389 967 0.740 10000.000 0.000 -0.165
102 306.00 1500.02 443 1034 0.740 10000.000 0.000 -0.165
103 309.00 1500.02 450 1001 0.740 10000.000 0.000 -0.165
104 312.00 1500.02 425 1040 0.740 10000.000 0.000 -0.165
105 315.00 1500.02 436 1100 0.740 10000.000 0.000 -0.165
106 318.00 1500.02 451 1126 0.740 10000.000 0.000 -0.165
107 321.00 1500.02 446 1142 0.740 10000.000 0.000 -0.165
108 324.00 1500.02 454 1157 0.740 10000.000 0.000 -0.165
109 327.00 1500.02 408 1087 0.740 10000.000 0.000 -0.165
110 330.00 1500.02 405 1224 0.740 10000.000 0.000 -0.165
111 333.00 1500.02 406 1181 0.740 10000.000 0.000 -0.165
112 336.00 1500.02 451 1234 0.740 10000.000 0.000 -0.165
113 339.00 1500.02 421 1207 0.740 10000.000 0.000 -0.165
114 342.00 1500.02 441 1230 0.740 10000.000 0.000 -0.165
115 345.00 1500.02 418 1178 0.740 10000.000 0.000 -0.165
116 348.00 1500.02 391 1204 0.740 10000.000 0.000 -0.165
117 351.00 1500.02 439 1202 0.740 10000.000 0.000 -0.165
118 354.00 1500.02 423 1216 0.740 10000.000 0.000 -0.165
119 357.00 1500.02 392 1203 0.740 10000.000 0.000 -0.165
120 360.00 1500.02 436 1234 0.740 10000.000 0.000 -0.165
121 363.00 1500.02 406 1204 0.740 10000.000 0.000 -0.165
122 366.00 1500.02 390 1213 0.740 10000.000 0.000 -0.165
123 369.00 1500.02 431 1144 0.740 10000.000 0.000 -0.165
124 372.00 1500.02 397 1206 0.740 10000.000 0.000 -0.165
125 375.00 1500.02 439 1174 0.740 10000.000 0.000 -0.165
126 378.00 1500.02 439 1172 0.740 10000.000 0.000 -0.165
127 381.00 1500.02 400 1074 0.740 10000.000 0.000 -0.165
128 384.00 1500.02 439 1086 0.740 10000.000 0.000 -0.165
129 387.00 1500.02 405 1076 0.740 10000.000 0.000 -0.165
130 390.00 1500.02 414 1060 0.740 10000.000 0.000 -0.165
131 393.00 1500.02 409 1045 0.740 10000.000 0.000 -0.165
132 396.00 1500.02 404 1054 0.740 10000.000 0.000 -0.165
133 399.00 1500.02 399 1034 0.740 10000.000 0.000 -0.165
134 402.00 1500.02 450 1084 0.740 10000.000 0.000 -0.165
135 405.00 1500.02 421 1083 0.740 10000.000 0.000 -0.165
136 408.00 1500.02 433 1053 0.740 10000.000 0.000 -0.165
137 411.00 1500.02 449 1104 0.740 10000.000 0.000 -0.165
138 414.00 1500.02 423 1056 0.740 10000.000 0.000 -0.165
139 417.00 1500.02 436 1095 0.740 10000.000 0.000 -0.165
140 420.00 1500.02 434 1124 0.740 10000.000 0.000 -0.165
141 423.00 1500.02 370 1149 0.740 10000.000 0.000 -0.165
142 426.00 1500.02 438 1179 0.740 10000.000 0.000 -0.165
143 429.00 1500.02 416 1172 0.740 10000.000 0.000 -0.165
144 432.00 1500.02 465 1220 0.740 10000.000 0.000 -0.165
