# BinNR microsec tot-time (s)  O-Beam AUX Ampl(V) f(Hz) phase(deg) chi(pos)
0 0.00 1500.01 207 594 0.740 10000.000 0.000 -0.505
1 3.00 1500.01 419 1202 0.740 10000.000 0.000 -0.505
2 6.00 1500.01 419 1177 0.740 10000.000 0.000 -0.505
3 9.00 1500.01 466 1143 0.740 10000.000 0.000 -0.505
4 12.00 1500.01 430 1203 0.740 10000.000 0.000 -0.505
5 15.00 1500.01 422 1240 0.740 10000.000 0.000 -0.505
6 18.00 1500.01 444 1171 0.740 10000.000 0.000 -0.505
7 21.00 1500.01 424 1166 0.740 10000.000 0.000 -0.505
8 24.00 1500.01 448 1211 0.740 10000.000 0.000 -0.505
9 27.00 1500.01 419 1162 0.740 10000.000 0.000 -0.505
10 30.00 1500.01 428 1235 0.740 10000.000 0.000 -0.505
11 33.00 1500.01 467 1201 0.740 10000.000 0.000 -0.505
12 36.00 1500.01 486 1208 0.740 10000.000 0.000 -0.505
13 39.00 1500.01 423 1233 0.740 10000.000 0.000 -0.505
14 42.00 1500.01 431 1177 0.740 10000.000 0.000 -0.505
15 45.00 1500.01 448 1268 0.740 10000.000 0.000 -0.505
16 48.00 1500.01 458 1188 0.740 10000.000 0.000 -0.505
17 51.00 1500.01 404 1230 0.740 10000.000 0.000 -0.505
18 54.00 1500.01 508 1198 0.740 10000.000 0.000 -0.505
19 57.00 1500.01 425 1234 0.740 10000.000 0.000 -0.505
20 60.00 1500.01 471 1174 0.740 10000.000 0.000 -0.505
21 63.00 1500.01 459 1118 0.740 10000.000 0.000 -0.505
22 66.00 1500.01 455 1206 0.740 10000.000 0.000 -0.505
23 69.00 1500.01 409 1199 0.740 10000.000 0.000 -0.505
24 72.00 1500.01 426 1169 0.740 10000.000 0.000 -0.505
25 75.00 1500.01 428 1266 0.740 10000.000 0.000 -0.505
26 78.00 1500.01 448 1275 0.740 10000.000 0.000 -0.505
27 81.00 1500.01 397 1282 0.740 10000.000 0.000 -0.505
28 84.00 1500.01 449 1273 0.740 10000.000 0.000 -0.505
29 87.00 1500.01 467 1321 0.740 10000.000 0.000 -0.505
30 90.00 1500.01 428 1201 0.740 10000.000 0.000 -0.505
31 93.00 1500.01 411 1210 0.740 10000.000 0.000 -0.505
32 96.00 1500.01 439 1283 0.740 10000.000 0.000 -0.505
33 99.00 1500.01 444 1303 0.740 10000.000 0.000 -0.505
34 102.00 1500.01 453 1253 0.740 10000.000 0.000 -0.505
35 105.00 1500.01 440 1208 0.740 10000.000 0.000 -0.505
36 108.00 1500.01 428 1244 0.740 10000.000 0.000 -0.505
37 111.00 1500.01 453 1292 0.740 10000.000 0.000 -0.505
38 114.00 1500.01 452 1323 0.740 10000.000 0.000 -0.505
39 117.00 1500.01 458 1185 0.740 10000.000 0.000 -0.505
40 120.00 1500.01 420 1241 0.740 10000.000 0.000 -0.505
41 123.00 1500.01 456 1249 0.740 10000.000 0.000 -0.505
42 126.00 1500.01 449 1176 0.740 10000.000 0.000 -0.505
43 129.00 1500.01 408 1133 0.740 10000.000 0.000 -0.505
44 132.00 1500.01 476 1122 0.740 10000.000 0.000 -0.505
45 135.00 1500.01 424 1232 0.740 10000.000 0.000 -0.505
46 138.00 1500.01 460 1191 0.740 10000.000 0.000 -0.505
47 141.00 1500.01 454 1112 0.740 10000.000 0.000 -0.505
48 144.00 1500.01 450 1095 0.740 10000.000 0.000 -0.505
49 147.00 1500.01 461 1147 0.740 10000.000 0.000 -0.505
50 150.00 1500.01 430 1104 0.740 10000.000 0.000 -0.505
51 153.00 1500.01 423 1116 0.740 10000.000 0.000 -0.505
52 156.00 1500.01 468 1134 0.740 10000.000 0.000 -0.505
53 159.00 1500.01 428 1169 0.740 10000.000 0.000 -0.505
54 162.00 1500.01 431 1240 0.740 10000.000 0.000 -0.505
55 165.00 1500.01 407 1119 0.740 10000.000 0.000 -0.505
56 168.00 1500.01 472 1135 0.740 10000.000 0.000 -0.505
57 171.00 1500.01 481 1237 0.740 10000.000 0.000 -0.505
58 174.00 1500.01 444 1274 0.740 10000.000 0.000 -0.505
59 177.00 1500.01 444 1224 0.740 10000.000 0.000 -0.505
60 180.00 1500.01 465 1284 0.740 10000.000 0.000 -0.505
61 183.00 1500.01 387 1259 0.740 10000.000 0.000 -0.505
62 186.00 1500.01 453 1273 0.740 10000.000 0.000 -0.505
63 189.00 1500.01 458 1258 0.740 10000.000 0.000 -0.505
64 192.00 1500.01 431 1285 0.740 10000.000 0.000 -0.505
65 195.00 1500.01 419 1302 0.740 10000.000 0.000 -0.505
66 198.00 1500.01 428 1300 0.740 10000.000 0.000 -0.505
67 201.00 1500.01 438 1316 0.740 10000.000 0.000 -0.505
68 204.00 1500.01 418 1243 0.740 10000.000 0.000 -0.505
69 207.00 1500.01 460 1296 0.740 10000.000 0.000 -0.505
70 210.00 1500.01 464 1239 0.740 10000.000 0.000 -0.505
71 213.00 1500.01 439 1240 0.740 10000.000 0.000 -0.505
72 216.00 1500.01 414 1256 0.740 10000.000 0.000 -0.505
73 219.00 1500.01 483 1180 0.740 10000.000 0.000 -0.505
74 222.00 1500.01 454 1244 0.740 10000.000 0.000 -0.505
75 225.00 1500.01 398 1228 0.740 10000.000 0.000 -0.505
76 228.00 1500.01 483 1222 0.740 10000.000 0.000 -0.505
77 231.00 1500.01 462 1238 0.740 10000.000 0.000 -0.505
78 234.00 1500.01 415 1171 0.740 10000.000 0.000 -0.505
79 237.00 1500.01 424 1183 0.740 10000.000 0.000 -0.505
80 240.00 1500.01 454 1200 0.740 10000.000 0.000 -0.505
81 243.00 1500.01 427 1156 0.740 10000.000 0.000 -0.505
82 246.00 1500.01 443 1091 0.740 10000.000 0.000 -0.505
83 249.00 1500.01 434 1067 0.740 10000.000 0.000 -0.505
84 252.00 1500.01 437 1203 0.740 10000.000 0.000 -0.505
85 255.00 1500.01 419 1048 0.740 10000.000 0.000 -0.505
86 258.00 1500.01 465 1162 0.740 10000.000 0.000 -0.505
87 261.00 1500.01 429 1094 0.740 10000.000 0.000 -0.505
88 264.00 1500.01 428 1181 0.740 10000.000 0.000 -0.505
89 267.00 1500.01 419 1177 0.740 10000.000 0.000 -0.505
90 270.00 1500.01 444 1250 0.740 10000.000 0.000 -0.505
91 273.00 1500.01 468 1267 0.740 10000.000 0.000 -0.505
92 276.00 1500.01 433 1273 0.740 10000.000 0.000 -0.505
93 279.00 1500.01 434 1202 0.740 10000.000 0.000 -0.505
94 282.00 1500.01 407 1255 0.740 10000.000 0.000 -0.505
95 285.00 1500.01 393 1206 0.740 10000.000 0.000 -0.505
96 288.00 1500.01 422 1266 0.740 10000.000 0.000 -0.505
97 291.00 1500.01 406 1258 0.740 10000.000 0.000 -0.505
98 294.00 1500.01 393 1258 0.740 10000.000 0.000 -0.505
99 297.00 1500.01 402 1184 0.740 10000.000 0.000 -0.505
100 300.00 1500.01 423 1275 0.740 10000.000 0.000 -0.505
101 303.00 1500.01 404 1239 0.740 10000.000 0.000 -0.505
102 306.00 1500.01 437 1229 0.740 10000.000 0.000 -0.505
103 309.00 1500.01 408 1222 0.740 10000.000 0.000 -0.505
104 312.00 1500.01 466 1298 0.740 10000.000 0.000 -0.505
105 315.00 1500.01 431 1277 0.740 10000.000 0.000 -0.505
106 318.00 1500.01 446 1245 0.740 10000.000 0.000 -0.505
107 321.00 1500.01 392 1241 0.740 10000.000 0.000 -0.505
108 324.00 1500.01 453 1177 0.740 10000.000 0.000 -0.505
109 327.00 1500.01 462 1190 0.740 10000.000 0.000 -0.505
110 330.00 1500.01 415 1154 0.740 10000.000 0.000 -0.505
111 333.00 1500.01 428 1202 0.740 10000.000 0.000 -0.505
112 336.00 1500.01 447 1141 0.740 10000.000 0.000 -0.505
113 339.00 1500.01 440 1147 0.740 10000.000 0.000 -0.505
114 342.00 1500.01 464 1162 0.740 10000.000 0.000 -0.505
115 345.00 1500.01 446 1162 0.740 10000.000 0.000 -0.505
116 348.00 1500.01 448 1116 0.740 10000.000 0.000 -0.505
117 351.00 1500.01 442 1093 0.740 10000.000 0.000 -0.505
118 354.00 1500.01 432 1138 0.740 10000.000 0.000 -0.505
119 357.00 1500.01 459 1161 0.740 10000.000 0.000 -0.505
120 360.00 1500.01 422 1192 0.740 10000.000 0.000 -0.505
121 363.00 1500.01 428 1150 0.740 10000.000 0.000 -0.505
122 366.00 1500.01 431 1140 0.740 10000.000 0.000 -0.505
123 369.00 1500.01 441 1193 0.740 10000.000 0.000 -0.505
124 372.00 1500.01 491 1235 0.740 10000.000 0.000 -0.505
125 375.00 1500.01 464 1281 0.740 10000.000 0.000 -0.505
126 378.00 1500.01 446 1299 0.740 10000.000 0.000 -0.505
127 381.00 1500.01 430 1305 0.740 10000.000 0.000 -0.505
128 384.00 1500.01 410 1226 0.740 10000.000 0.000 -0.505
129 387.00 1500.01 434 1197 0.740 10000.000 0.000 -0.505
130 390.00 1500.01 446 1297 0.740 10000.000 0.000 -0.505
131 393.00 1500.01 424 1262 0.740 10000.000 0.000 -0.505
132 396.00 1500.01 465 1254 0.740 10000.000 0.000 -0.505
133 399.00 1500.01 432 1256 0.740 10000.000 0.000 -0.505
134 402.00 1500.01 434 1263 0.740 10000.000 0.000 -0.505
135 405.00 1500.01 414 1230 0.740 10000.000 0.000 -0.505
136 408.00 1500.01 462 1298 0.740 10000.000 0.000 -0.505
137 411.00 1500.01 413 1294 0.740 10000.000 0.000 -0.505
138 414.00 1500.01 457 1281 0.740 10000.000 0.000 -0.505
139 417.00 1500.01 401 1253 0.740 10000.000 0.000 -0.505
140 420.00 1500.01 410 1136 0.740 10000.000 0.000 -0.505
141 423.00 1500.01 395 1232 0.740 10000.000 0.000 -0.505
142 426.00 1500.01 441 1204 0.740 10000.000 0.000 -0.505
143 429.00 1500.01 446 1168 0.740 10000.000 0.000 -0.505
144 432.00 1500.01 389 1162 0.740 10000.000 0.000 -0.505
