# BinNR microsec tot-time (s)  O-Beam AUX Ampl(V) f(Hz) phase(deg) chi(pos)
0 0.00 1500.00 184 614 0.740 10000.000 0.000 1.154
1 3.00 1500.00 352 1159 0.740 10000.000 0.000 1.154
2 6.00 1500.00 374 1166 0.740 10000.000 0.000 1.154
3 9.00 1500.00 352 1160 0.740 10000.000 0.000 1.154
4 12.00 1500.00 357 1201 0.740 10000.000 0.000 1.154
5 15.00 1500.00 310 1154 0.740 10000.000 0.000 1.154
6 18.00 1500.00 341 1187 0.740 10000.000 0.000 1.154
7 21.00 1500.00 302 1140 0.740 10000.000 0.000 1.154
8 24.00 1500.00 315 1143 0.740 10000.000 0.000 1.154
9 27.00 1500.00 319 1123 0.740 10000.000 0.000 1.154
10 30.00 1500.00 279 1054 0.740 10000.000 0.000 1.154
11 33.00 1500.00 288 1099 0.740 10000.000 0.000 1.154
12 36.00 1500.00 289 1128 0.740 10000.000 0.000 1.154
13 39.00 1500.00 278 1091 0.740 10000.000 0.000 1.154
14 42.00 1500.00 287 1121 0.740 10000.000 0.000 1.154
15 45.00 1500.00 309 1133 0.740 10000.000 0.000 1.154
16 48.00 1500.00 312 1179 0.740 10000.000 0.000 1.154
17 51.00 1500.00 347 1109 0.740 10000.000 0.000 1.154
18 54.00 1500.00 343 1209 0.740 10000.000 0.000 1.154
19 57.00 1500.00 344 1161 0.740 10000.000 0.000 1.154
20 60.00 1500.00 338 1213 0.740 10000.000 0.000 1.154
21 63.00 1500.00 406 1147 0.740 10000.000 0.000 1.154
22 66.00 1500.00 345 1222 0.740 10000.000 0.000 1.154
23 69.00 1500.00 372 1123 0.740 10000.000 0.000 1.154
24 72.00 1500.00 362 1087 0.740 10000.000 0.000 1.154
25 75.00 1500.00 396 1106 0.740 10000.000 0.000 1.154
26 78.00 1500.00 386 1045 0.740 10000.000 0.000 1.154
27 81.00 1500.00 396 1020 0.740 10000.000 0.000 1.154
28 84.00 1500.00 397 985 0.740 10000.000 0.000 1.154
29 87.00 1500.00 400 996 0.740 10000.000 0.000 1.154
30 90.00 1500.00 390 990 0.740 10000.000 0.000 1.154
31 93.00 1500.00 369 948 0.740 10000.000 0.000 1.154
32 96.00 1500.00 365 987 0.740 10000.000 0.000 1.154
33 99.00 1500.00 370 951 0.740 10000.000 0.000 1.154
34 102.00 1500.00 362 984 0.740 10000.000 0.000 1.154
35 105.00 1500.00 365 999 0.740 10000.000 0.000 1.154
36 108.00 1500.00 357 1009 0.740 10000.000 0.000 1.154
37 111.00 1500.00 349 966 0.740 10000.000 0.000 1.154
38 114.00 1500.00 359 1028 0.740 10000.000 0.000 1.154
39 117.00 1500.00 319 1041 0.740 10000.000 0.000 1.154
40 120.00 1500.00 304 1054 0.740 10000.000 0.000 1.154
41 123.00 1500.00 309 1107 0.740 10000.000 0.000 1.154
42 126.00 1500.00 296 1153 0.740 10000.000 0.000 1.154
43 129.00 1500.00 293 1140 0.740 10000.000 0.000 1.154
44 132.00 1500.00 286 1168 0.740 10000.000 0.000 1.154
45 135.00 1500.00 313 1215 0.740 10000.000 0.000 1.154
46 138.00 1500.00 275 1218 0.740 10000.000 0.000 1.154
47 141.00 1500.00 292 1181 0.740 10000.000 0.000 1.154
48 144.00 1500.00 295 1192 0.740 10000.000 0.000 1.154
49 147.00 1500.00 318 1229 0.740 10000.000 0.000 1.154
50 150.00 1500.00 320 1235 0.740 10000.000 0.000 1.154
51 153.00 1500.00 299 1224 0.740 10000.000 0.000 1.154
52 156.00 1500.00 315 1182 0.740 10000.000 0.000 1.154
53 159.00 1500.00 324 1162 0.740 10000.000 0.000 1.154
54 162.00 1500.00 337 1140 0.740 10000.000 0.000 1.154
55 165.00 1500.00 333 1158 0.740 10000.000 0.000 1.154
56 168.00 1500.00 351 1151 0.740 10000.000 0.000 1.154
57 171.00 1500.00 381 1122 0.740 10000.000 0.000 1.154
58 174.00 1500.00 383 1131 0.740 10000.000 0.000 1.154
59 177.00 1500.00 369 1059 0.740 10000.000 0.000 1.154
60 180.00 1500.00 427 997 0.740 10000.000 0.000 1.154
61 183.00 1500.00 381 1055 0.740 10000.000 0.000 1.154
62 186.00 1500.00 370 980 0.740 10000.000 0.000 1.154
63 189.00 1500.00 387 915 0.740 10000.000 0.000 1.154
64 192.00 1500.00 396 986 0.740 10000.000 0.000 1.154
65 195.00 1500.00 366 985 0.740 10000.000 0.000 1.154
66 198.00 1500.00 357 1006 0.740 10000.000 0.000 1.154
67 201.00 1500.00 344 1007 0.740 10000.000 0.000 1.154
68 204.00 1500.00 369 1000 0.740 10000.000 0.000 1.154
69 207.00 1500.00 357 960 0.740 10000.000 0.000 1.154
70 210.00 1500.00 346 1015 0.740 10000.000 0.000 1.154
71 213.00 1500.00 328 1036 0.740 10000.000 0.000 1.154
72 216.00 1500.00 348 1095 0.740 10000.000 0.000 1.154
73 219.00 1500.00 331 1092 0.740 10000.000 0.000 1.154
74 222.00 1500.00 341 1148 0.740 10000.000 0.000 1.154
75 225.00 1500.00 331 1189 0.740 10000.000 0.000 1.154
76 228.00 1500.00 290 1160 0.740 10000.000 0.000 1.154
77 231.00 1500.00 321 1158 0.740 10000.000 0.000 1.154
78 234.00 1500.00 299 1162 0.740 10000.000 0.000 1.154
79 237.00 1500.00 274 1181 0.740 10000.000 0.000 1.154
80 240.00 1500.00 293 1227 0.740 10000.000 0.000 1.154
81 243.00 1500.00 288 1197 0.740 10000.000 0.000 1.154
82 246.00 1500.00 310 1233 0.740 10000.000 0.000 1.154
83 249.00 1500.00 322 1186 0.740 10000.000 0.000 1.154
84 252.00 1500.00 306 1209 0.740 10000.000 0.000 1.154
85 255.00 1500.00 312 1164 0.740 10000.000 0.000 1.154
86 258.00 1500.00 381 1188 0.740 10000.000 0.000 1.154
87 261.00 1500.00 333 1209 0.740 10000.000 0.000 1.154
88 264.00 1500.00 346 1205 0.740 10000.000 0.000 1.154
89 267.00 1500.00 388 1118 0.740 10000.000 0.000 1.154
90 270.00 1500.00 369 1099 0.740 10000.000 0.000 1.154
91 273.00 1500.00 366 1066 0.740 10000.000 0.000 1.154
92 276.00 1500.00 349 1033 0.740 10000.000 0.000 1.154
93 279.00 1500.00 366 1063 0.740 10000.000 0.000 1.154
94 282.00 1500.00 413 992 0.740 10000.000 0.000 1.154
95 285.00 1500.00 404 1019 0.740 10000.000 0.000 1.154
96 288.00 1500.00 312 1057 0.740 10000.000 0.000 1.154
97 291.00 1500.00 341 987 0.740 10000.000 0.000 1.154
98 294.00 1500.00 344 976 0.740 10000.000 0.000 1.154
99 297.00 1500.00 355 939 0.740 10000.000 0.000 1.154
100 300.00 1500.00 347 921 0.740 10000.000 0.000 1.154
101 303.00 1500.00 369 939 0.740 10000.000 0.000 1.154
102 306.00 1500.00 344 969 0.740 10000.000 0.000 1.154
103 309.00 1500.00 358 943 0.740 10000.000 0.000 1.154
104 312.00 1500.00 375 1021 0.740 10000.000 0.000 1.154
105 315.00 1500.00 334 1046 0.740 10000.000 0.000 1.154
106 318.00 1500.00 389 1077 0.740 10000.000 0.000 1.154
107 321.00 1500.00 348 1110 0.740 10000.000 0.000 1.154
108 324.00 1500.00 395 1173 0.740 10000.000 0.000 1.154
109 327.00 1500.00 372 1131 0.740 10000.000 0.000 1.154
110 330.00 1500.00 362 1190 0.740 10000.000 0.000 1.154
111 333.00 1500.00 382 1189 0.740 10000.000 0.000 1.154
112 336.00 1500.00 376 1149 0.740 10000.000 0.000 1.154
113 339.00 1500.00 368 1272 0.740 10000.000 0.000 1.154
114 342.00 1500.00 377 1231 0.740 10000.000 0.000 1.154
115 345.00 1500.00 343 1175 0.740 10000.000 0.000 1.154
116 348.00 1500.00 301 1174 0.740 10000.000 0.000 1.154
117 351.00 1500.00 325 1151 0.740 10000.000 0.000 1.154
118 354.00 1500.00 303 1188 0.740 10000.000 0.000 1.154
119 357.00 1500.00 341 1158 0.740 10000.000 0.000 1.154
120 360.00 1500.00 293 1227 0.740 10000.000 0.000 1.154
121 363.00 1500.00 281 1093 0.740 10000.000 0.000 1.154
122 366.00 1500.00 297 1217 0.740 10000.000 0.000 1.154
123 369.00 1500.00 288 1134 0.740 10000.000 0.000 1.154
124 372.00 1500.00 310 1121 0.740 10000.000 0.000 1.154
125 375.00 1500.00 297 1043 0.740 10000.000 0.000 1.154
126 378.00 1500.00 272 1065 0.740 10000.000 0.000 1.154
127 381.00 1500.00 313 1072 0.740 10000.000 0.000 1.154
128 384.00 1500.00 319 1033 0.740 10000.000 0.000 1.154
129 387.00 1500.00 303 987 0.740 10000.000 0.000 1.154
130 390.00 1500.00 317 987 0.740 10000.000 0.000 1.154
131 393.00 1500.00 341 960 0.740 10000.000 0.000 1.154
132 396.00 1500.00 348 948 0.740 10000.000 0.000 1.154
133 399.00 1500.00 342 971 0.740 10000.000 0.000 1.154
134 402.00 1500.00 386 951 0.740 10000.000 0.000 1.154
135 405.00 1500.00 334 938 0.740 10000.000 0.000 1.154
136 408.00 1500.00 352 969 0.740 10000.000 0.000 1.154
137 411.00 1500.00 391 932 0.740 10000.000 0.000 1.154
138 414.00 1500.00 382 1045 0.740 10000.000 0.000 1.154
139 417.00 1500.00 428 1026 0.740 10000.000 0.000 1.154
140 420.00 1500.00 358 1069 0.740 10000.000 0.000 1.154
141 423.00 1500.00 374 1149 0.740 10000.000 0.000 1.154
142 426.00 1500.00 377 1126 0.740 10000.000 0.000 1.154
143 429.00 1500.00 367 1116 0.740 10000.000 0.000 1.154
144 432.00 1500.00 381 1162 0.740 10000.000 0.000 1.154
