# BinNR microsec tot-time (s)  O-Beam AUX Ampl(V) f(Hz) phase(deg) chi(pos)
0 0.00 1500.00 210 621 0.740 10000.000 0.000 1.329
1 3.00 1500.00 414 1274 0.740 10000.000 0.000 1.329
2 6.00 1500.00 408 1255 0.740 10000.000 0.000 1.329
3 9.00 1500.00 386 1229 0.740 10000.000 0.000 1.329
4 12.00 1500.00 384 1301 0.740 10000.000 0.000 1.329
5 15.00 1500.00 389 1214 0.740 10000.000 0.000 1.329
6 18.00 1500.00 407 1259 0.740 10000.000 0.000 1.329
7 21.00 1500.00 387 1238 0.740 10000.000 0.000 1.329
8 24.00 1500.00 377 1298 0.740 10000.000 0.000 1.329
9 27.00 1500.00 363 1313 0.740 10000.000 0.000 1.329
10 30.00 1500.00 375 1240 0.740 10000.000 0.000 1.329
11 33.00 1500.00 383 1244 0.740 10000.000 0.000 1.329
12 36.00 1500.00 378 1308 0.740 10000.000 0.000 1.329
13 39.00 1500.00 355 1276 0.740 10000.000 0.000 1.329
14 42.00 1500.00 364 1231 0.740 10000.000 0.000 1.329
15 45.00 1500.00 370 1279 0.740 10000.000 0.000 1.329
16 48.00 1500.00 375 1281 0.740 10000.000 0.000 1.329
17 51.00 1500.00 363 1232 0.740 10000.000 0.000 1.329
18 54.00 1500.00 379 1274 0.740 10000.000 0.000 1.329
19 57.00 1500.00 408 1253 0.740 10000.000 0.000 1.329
20 60.00 1500.00 442 1246 0.740 10000.000 0.000 1.329
21 63.00 1500.00 391 1251 0.740 10000.000 0.000 1.329
22 66.00 1500.00 406 1182 0.740 10000.000 0.000 1.329
23 69.00 1500.00 453 1284 0.740 10000.000 0.000 1.329
24 72.00 1500.00 410 1215 0.740 10000.000 0.000 1.329
25 75.00 1500.00 391 1219 0.740 10000.000 0.000 1.329
26 78.00 1500.00 418 1266 0.740 10000.000 0.000 1.329
27 81.00 1500.00 433 1193 0.740 10000.000 0.000 1.329
28 84.00 1500.00 459 1219 0.740 10000.000 0.000 1.329
29 87.00 1500.00 462 1205 0.740 10000.000 0.000 1.329
30 90.00 1500.00 444 1246 0.740 10000.000 0.000 1.329
31 93.00 1500.00 441 1215 0.740 10000.000 0.000 1.329
32 96.00 1500.00 424 1174 0.740 10000.000 0.000 1.329
33 99.00 1500.00 426 1132 0.740 10000.000 0.000 1.329
34 102.00 1500.00 399 1202 0.740 10000.000 0.000 1.329
35 105.00 1500.00 414 1133 0.740 10000.000 0.000 1.329
36 108.00 1500.00 433 1207 0.740 10000.000 0.000 1.329
37 111.00 1500.00 375 1152 0.740 10000.000 0.000 1.329
38 114.00 1500.00 425 1225 0.740 10000.000 0.000 1.329
39 117.00 1500.00 416 1202 0.740 10000.000 0.000 1.329
40 120.00 1500.00 406 1213 0.740 10000.000 0.000 1.329
41 123.00 1500.00 391 1239 0.740 10000.000 0.000 1.329
42 126.00 1500.00 397 1264 0.740 10000.000 0.000 1.329
43 129.00 1500.00 346 1329 0.740 10000.000 0.000 1.329
44 132.00 1500.00 387 1242 0.740 10000.000 0.000 1.329
45 135.00 1500.00 344 1183 0.740 10000.000 0.000 1.329
46 138.00 1500.00 376 1233 0.740 10000.000 0.000 1.329
47 141.00 1500.00 364 1264 0.740 10000.000 0.000 1.329
48 144.00 1500.00 410 1234 0.740 10000.000 0.000 1.329
49 147.00 1500.00 416 1252 0.740 10000.000 0.000 1.329
50 150.00 1500.00 407 1258 0.740 10000.000 0.000 1.329
51 153.00 1500.00 402 1178 0.740 10000.000 0.000 1.329
52 156.00 1500.00 407 1265 0.740 10000.000 0.000 1.329
53 159.00 1500.00 398 1275 0.740 10000.000 0.000 1.329
54 162.00 1500.00 406 1271 0.740 10000.000 0.000 1.329
55 165.00 1500.00 406 1214 0.740 10000.000 0.000 1.329
56 168.00 1500.00 456 1263 0.740 10000.000 0.000 1.329
57 171.00 1500.00 398 1201 0.740 10000.000 0.000 1.329
58 174.00 1500.00 441 1229 0.740 10000.000 0.000 1.329
59 177.00 1500.00 401 1266 0.740 10000.000 0.000 1.329
60 180.00 1500.00 428 1223 0.740 10000.000 0.000 1.329
61 183.00 1500.00 448 1142 0.740 10000.000 0.000 1.329
62 186.00 1500.00 433 1196 0.740 10000.000 0.000 1.329
63 189.00 1500.00 442 1164 0.740 10000.000 0.000 1.329
64 192.00 1500.00 426 1170 0.740 10000.000 0.000 1.329
65 195.00 1500.00 400 1115 0.740 10000.000 0.000 1.329
66 198.00 1500.00 449 1208 0.740 10000.000 0.000 1.329
67 201.00 1500.00 412 1221 0.740 10000.000 0.000 1.329
68 204.00 1500.00 438 1121 0.740 10000.000 0.000 1.329
69 207.00 1500.00 422 1147 0.740 10000.000 0.000 1.329
70 210.00 1500.00 410 1179 0.740 10000.000 0.000 1.329
71 213.00 1500.00 353 1171 0.740 10000.000 0.000 1.329
72 216.00 1500.00 407 1193 0.740 10000.000 0.000 1.329
73 219.00 1500.00 377 1216 0.740 10000.000 0.000 1.329
74 222.00 1500.00 394 1255 0.740 10000.000 0.000 1.329
75 225.00 1500.00 370 1271 0.740 10000.000 0.000 1.329
76 228.00 1500.00 383 1273 0.740 10000.000 0.000 1.329
77 231.00 1500.00 389 1251 0.740 10000.000 0.000 1.329
78 234.00 1500.00 370 1330 0.740 10000.000 0.000 1.329
79 237.00 1500.00 359 1260 0.740 10000.000 0.000 1.329
80 240.00 1500.00 404 1362 0.740 10000.000 0.000 1.329
81 243.00 1500.00 380 1216 0.740 10000.000 0.000 1.329
82 246.00 1500.00 387 1247 0.740 10000.000 0.000 1.329
83 249.00 1500.00 380 1294 0.740 10000.000 0.000 1.329
84 252.00 1500.00 409 1258 0.740 10000.000 0.000 1.329
85 255.00 1500.00 357 1230 0.740 10000.000 0.000 1.329
86 258.00 1500.00 450 1229 0.740 10000.000 0.000 1.329
87 261.00 1500.00 448 1310 0.740 10000.000 0.000 1.329
88 264.00 1500.00 403 1256 0.740 10000.000 0.000 1.329
89 267.00 1500.00 442 1218 0.740 10000.000 0.000 1.329
90 270.00 1500.00 453 1260 0.740 10000.000 0.000 1.329
91 273.00 1500.00 435 1207 0.740 10000.000 0.000 1.329
92 276.00 1500.00 430 1234 0.740 10000.000 0.000 1.329
93 279.00 1500.00 409 1197 0.740 10000.000 0.000 1.329
94 282.00 1500.00 406 1245 0.740 10000.000 0.000 1.329
95 285.00 1500.00 419 1170 0.740 10000.000 0.000 1.329
96 288.00 1500.00 424 1197 0.740 10000.000 0.000 1.329
97 291.00 1500.00 416 1171 0.740 10000.000 0.000 1.329
98 294.00 1500.00 393 1213 0.740 10000.000 0.000 1.329
99 297.00 1500.00 471 1159 0.740 10000.000 0.000 1.329
100 300.00 1500.00 404 1195 0.740 10000.000 0.000 1.329
101 303.00 1500.00 408 1172 0.740 10000.000 0.000 1.329
102 306.00 1500.00 427 1117 0.740 10000.000 0.000 1.329
103 309.00 1500.00 404 1104 0.740 10000.000 0.000 1.329
104 312.00 1500.00 439 1200 0.740 10000.000 0.000 1.329
105 315.00 1500.00 425 1205 0.740 10000.000 0.000 1.329
106 318.00 1500.00 443 1301 0.740 10000.000 0.000 1.329
107 321.00 1500.00 418 1235 0.740 10000.000 0.000 1.329
108 324.00 1500.00 443 1296 0.740 10000.000 0.000 1.329
109 327.00 1500.00 445 1246 0.740 10000.000 0.000 1.329
110 330.00 1500.00 465 1268 0.740 10000.000 0.000 1.329
111 333.00 1500.00 394 1179 0.740 10000.000 0.000 1.329
112 336.00 1500.00 467 1246 0.740 10000.000 0.000 1.329
113 339.00 1500.00 411 1208 0.740 10000.000 0.000 1.329
114 342.00 1500.00 445 1225 0.740 10000.000 0.000 1.329
115 345.00 1500.00 382 1242 0.740 10000.000 0.000 1.329
116 348.00 1500.00 374 1315 0.740 10000.000 0.000 1.329
117 351.00 1500.00 440 1258 0.740 10000.000 0.000 1.329
118 354.00 1500.00 410 1315 0.740 10000.000 0.000 1.329
119 357.00 1500.00 362 1259 0.740 10000.000 0.000 1.329
120 360.00 1500.00 374 1200 0.740 10000.000 0.000 1.329
121 363.00 1500.00 362 1217 0.740 10000.000 0.000 1.329
122 366.00 1500.00 374 1359 0.740 10000.000 0.000 1.329
123 369.00 1500.00 360 1257 0.740 10000.000 0.000 1.329
124 372.00 1500.00 367 1252 0.740 10000.000 0.000 1.329
125 375.00 1500.00 363 1279 0.740 10000.000 0.000 1.329
126 378.00 1500.00 358 1304 0.740 10000.000 0.000 1.329
127 381.00 1500.00 366 1272 0.740 10000.000 0.000 1.329
128 384.00 1500.00 402 1184 0.740 10000.000 0.000 1.329
129 387.00 1500.00 371 1180 0.740 10000.000 0.000 1.329
130 390.00 1500.00 357 1156 0.740 10000.000 0.000 1.329
131 393.00 1500.00 409 1137 0.740 10000.000 0.000 1.329
132 396.00 1500.00 448 1132 0.740 10000.000 0.000 1.329
133 399.00 1500.00 395 1095 0.740 10000.000 0.000 1.329
134 402.00 1500.00 454 1080 0.740 10000.000 0.000 1.329
135 405.00 1500.00 435 1143 0.740 10000.000 0.000 1.329
136 408.00 1500.00 446 1240 0.740 10000.000 0.000 1.329
137 411.00 1500.00 441 1221 0.740 10000.000 0.000 1.329
138 414.00 1500.00 423 1248 0.740 10000.000 0.000 1.329
139 417.00 1500.00 431 1255 0.740 10000.000 0.000 1.329
140 420.00 1500.00 416 1261 0.740 10000.000 0.000 1.329
141 423.00 1500.00 441 1260 0.740 10000.000 0.000 1.329
142 426.00 1500.00 458 1217 0.740 10000.000 0.000 1.329
143 429.00 1500.00 397 1200 0.740 10000.000 0.000 1.329
144 432.00 1500.00 439 1294 0.740 10000.000 0.000 1.329
