# BinNR microsec tot-time (s)  O-Beam AUX Ampl(V) f(Hz) phase(deg) chi(pos)
0 0.00 1500.01 159 459 0.740 10000.000 0.000 0.989
1 3.00 1500.01 278 1019 0.740 10000.000 0.000 0.989
2 6.00 1500.01 285 979 0.740 10000.000 0.000 0.989
3 9.00 1500.01 265 1012 0.740 10000.000 0.000 0.989
4 12.00 1500.01 252 1010 0.740 10000.000 0.000 0.989
5 15.00 1500.01 266 987 0.740 10000.000 0.000 0.989
6 18.00 1500.01 248 969 0.740 10000.000 0.000 0.989
7 21.00 1500.01 232 902 0.740 10000.000 0.000 0.989
8 24.00 1500.01 246 946 0.740 10000.000 0.000 0.989
9 27.00 1500.01 210 878 0.740 10000.000 0.000 0.989
10 30.00 1500.01 226 835 0.740 10000.000 0.000 0.989
11 33.00 1500.01 211 927 0.740 10000.000 0.000 0.989
12 36.00 1500.01 203 908 0.740 10000.000 0.000 0.989
13 39.00 1500.01 178 891 0.740 10000.000 0.000 0.989
14 42.00 1500.01 226 881 0.740 10000.000 0.000 0.989
15 45.00 1500.01 217 963 0.740 10000.000 0.000 0.989
16 48.00 1500.01 248 907 0.740 10000.000 0.000 0.989
17 51.00 1500.01 256 955 0.740 10000.000 0.000 0.989
18 54.00 1500.01 283 996 0.740 10000.000 0.000 0.989
19 57.00 1500.01 253 951 0.740 10000.000 0.000 0.989
20 60.00 1500.01 256 980 0.740 10000.000 0.000 0.989
21 63.00 1500.01 243 918 0.740 10000.000 0.000 0.989
22 66.00 1500.01 302 1000 0.740 10000.000 0.000 0.989
23 69.00 1500.01 305 960 0.740 10000.000 0.000 0.989
24 72.00 1500.01 298 898 0.740 10000.000 0.000 0.989
25 75.00 1500.01 332 829 0.740 10000.000 0.000 0.989
26 78.00 1500.01 325 806 0.740 10000.000 0.000 0.989
27 81.00 1500.01 347 818 0.740 10000.000 0.000 0.989
28 84.00 1500.01 321 767 0.740 10000.000 0.000 0.989
29 87.00 1500.01 324 719 0.740 10000.000 0.000 0.989
30 90.00 1500.01 321 734 0.740 10000.000 0.000 0.989
31 93.00 1500.01 313 675 0.740 10000.000 0.000 0.989
32 96.00 1500.01 288 757 0.740 10000.000 0.000 0.989
33 99.00 1500.01 291 680 0.740 10000.000 0.000 0.989
34 102.00 1500.01 278 716 0.740 10000.000 0.000 0.989
35 105.00 1500.01 293 711 0.740 10000.000 0.000 0.989
36 108.00 1500.01 288 693 0.740 10000.000 0.000 0.989
37 111.00 1500.01 271 729 0.740 10000.000 0.000 0.989
38 114.00 1500.01 255 776 0.740 10000.000 0.000 0.989
39 117.00 1500.01 223 800 0.740 10000.000 0.000 0.989
40 120.00 1500.01 236 875 0.740 10000.000 0.000 0.989
41 123.00 1500.01 237 900 0.740 10000.000 0.000 0.989
42 126.00 1500.01 224 888 0.740 10000.000 0.000 0.989
43 129.00 1500.01 212 922 0.740 10000.000 0.000 0.989
44 132.00 1500.01 214 995 0.740 10000.000 0.000 0.989
45 135.00 1500.01 195 990 0.740 10000.000 0.000 0.989
46 138.00 1500.01 200 1004 0.740 10000.000 0.000 0.989
47 141.00 1500.01 240 1076 0.740 10000.000 0.000 0.989
48 144.00 1500.01 223 1023 0.740 10000.000 0.000 0.989
49 147.00 1500.01 222 1047 0.740 10000.000 0.000 0.989
50 150.00 1500.01 225 1141 0.740 10000.000 0.000 0.989
51 153.00 1500.01 229 997 0.740 10000.000 0.000 0.989
52 156.00 1500.01 244 1059 0.740 10000.000 0.000 0.989
53 159.00 1500.01 229 967 0.740 10000.000 0.000 0.989
54 162.00 1500.01 269 982 0.740 10000.000 0.000 0.989
55 165.00 1500.01 285 939 0.740 10000.000 0.000 0.989
56 168.00 1500.01 302 984 0.740 10000.000 0.000 0.989
57 171.00 1500.01 280 857 0.740 10000.000 0.000 0.989
58 174.00 1500.01 281 862 0.740 10000.000 0.000 0.989
59 177.00 1500.01 300 872 0.740 10000.000 0.000 0.989
60 180.00 1500.01 332 790 0.740 10000.000 0.000 0.989
61 183.00 1500.01 307 740 0.740 10000.000 0.000 0.989
62 186.00 1500.01 315 687 0.740 10000.000 0.000 0.989
63 189.00 1500.01 319 739 0.740 10000.000 0.000 0.989
64 192.00 1500.01 302 739 0.740 10000.000 0.000 0.989
65 195.00 1500.01 298 652 0.740 10000.000 0.000 0.989
66 198.00 1500.01 314 651 0.740 10000.000 0.000 0.989
67 201.00 1500.01 296 681 0.740 10000.000 0.000 0.989
68 204.00 1500.01 286 708 0.740 10000.000 0.000 0.989
69 207.00 1500.01 256 692 0.740 10000.000 0.000 0.989
70 210.00 1500.01 259 720 0.740 10000.000 0.000 0.989
71 213.00 1500.01 288 735 0.740 10000.000 0.000 0.989
72 216.00 1500.01 263 845 0.740 10000.000 0.000 0.989
73 219.00 1500.01 233 836 0.740 10000.000 0.000 0.989
74 222.00 1500.01 243 910 0.740 10000.000 0.000 0.989
75 225.00 1500.01 197 891 0.740 10000.000 0.000 0.989
76 228.00 1500.01 216 990 0.740 10000.000 0.000 0.989
77 231.00 1500.01 230 946 0.740 10000.000 0.000 0.989
78 234.00 1500.01 172 975 0.740 10000.000 0.000 0.989
79 237.00 1500.01 204 1028 0.740 10000.000 0.000 0.989
80 240.00 1500.01 187 1046 0.740 10000.000 0.000 0.989
81 243.00 1500.01 236 964 0.740 10000.000 0.000 0.989
82 246.00 1500.01 222 1104 0.740 10000.000 0.000 0.989
83 249.00 1500.01 216 1073 0.740 10000.000 0.000 0.989
84 252.00 1500.01 220 1119 0.740 10000.000 0.000 0.989
85 255.00 1500.01 208 1018 0.740 10000.000 0.000 0.989
86 258.00 1500.01 256 1075 0.740 10000.000 0.000 0.989
87 261.00 1500.01 291 987 0.740 10000.000 0.000 0.989
88 264.00 1500.01 279 993 0.740 10000.000 0.000 0.989
89 267.00 1500.01 274 933 0.740 10000.000 0.000 0.989
90 270.00 1500.01 291 941 0.740 10000.000 0.000 0.989
91 273.00 1500.01 273 899 0.740 10000.000 0.000 0.989
92 276.00 1500.01 277 853 0.740 10000.000 0.000 0.989
93 279.00 1500.01 286 848 0.740 10000.000 0.000 0.989
94 282.00 1500.01 302 811 0.740 10000.000 0.000 0.989
95 285.00 1500.01 277 724 0.740 10000.000 0.000 0.989
96 288.00 1500.01 284 751 0.740 10000.000 0.000 0.989
97 291.00 1500.01 287 748 0.740 10000.000 0.000 0.989
98 294.00 1500.01 258 679 0.740 10000.000 0.000 0.989
99 297.00 1500.01 268 704 0.740 10000.000 0.000 0.989
100 300.00 1500.01 249 714 0.740 10000.000 0.000 0.989
101 303.00 1500.01 275 706 0.740 10000.000 0.000 0.989
102 306.00 1500.01 275 718 0.740 10000.000 0.000 0.989
103 309.00 1500.01 254 698 0.740 10000.000 0.000 0.989
104 312.00 1500.01 284 780 0.740 10000.000 0.000 0.989
105 315.00 1500.01 273 841 0.740 10000.000 0.000 0.989
106 318.00 1500.01 326 833 0.740 10000.000 0.000 0.989
107 321.00 1500.01 307 850 0.740 10000.000 0.000 0.989
108 324.00 1500.01 292 877 0.740 10000.000 0.000 0.989
109 327.00 1500.01 266 952 0.740 10000.000 0.000 0.989
110 330.00 1500.01 291 984 0.740 10000.000 0.000 0.989
111 333.00 1500.01 276 996 0.740 10000.000 0.000 0.989
112 336.00 1500.01 274 998 0.740 10000.000 0.000 0.989
113 339.00 1500.01 287 998 0.740 10000.000 0.000 0.989
114 342.00 1500.01 275 1040 0.740 10000.000 0.000 0.989
115 345.00 1500.01 262 1047 0.740 10000.000 0.000 0.989
116 348.00 1500.01 249 1101 0.740 10000.000 0.000 0.989
117 351.00 1500.01 257 1037 0.740 10000.000 0.000 0.989
118 354.00 1500.01 229 1097 0.740 10000.000 0.000 0.989
119 357.00 1500.01 219 1012 0.740 10000.000 0.000 0.989
120 360.00 1500.01 243 1040 0.740 10000.000 0.000 0.989
121 363.00 1500.01 179 971 0.740 10000.000 0.000 0.989
122 366.00 1500.01 239 1008 0.740 10000.000 0.000 0.989
123 369.00 1500.01 224 909 0.740 10000.000 0.000 0.989
124 372.00 1500.01 205 867 0.740 10000.000 0.000 0.989
125 375.00 1500.01 210 841 0.740 10000.000 0.000 0.989
126 378.00 1500.01 208 827 0.740 10000.000 0.000 0.989
127 381.00 1500.01 227 801 0.740 10000.000 0.000 0.989
128 384.00 1500.01 234 776 0.740 10000.000 0.000 0.989
129 387.00 1500.01 254 720 0.740 10000.000 0.000 0.989
130 390.00 1500.01 253 678 0.740 10000.000 0.000 0.989
131 393.00 1500.01 236 686 0.740 10000.000 0.000 0.989
132 396.00 1500.01 244 653 0.740 10000.000 0.000 0.989
133 399.00 1500.01 293 663 0.740 10000.000 0.000 0.989
134 402.00 1500.01 331 695 0.740 10000.000 0.000 0.989
135 405.00 1500.01 284 683 0.740 10000.000 0.000 0.989
136 408.00 1500.01 292 735 0.740 10000.000 0.000 0.989
137 411.00 1500.01 329 778 0.740 10000.000 0.000 0.989
138 414.00 1500.01 354 789 0.740 10000.000 0.000 0.989
139 417.00 1500.01 296 821 0.740 10000.000 0.000 0.989
140 420.00 1500.01 329 824 0.740 10000.000 0.000 0.989
141 423.00 1500.01 280 841 0.740 10000.000 0.000 0.989
142 426.00 1500.01 331 931 0.740 10000.000 0.000 0.989
143 429.00 1500.01 309 923 0.740 10000.000 0.000 0.989
144 432.00 1500.01 306 992 0.740 10000.000 0.000 0.989
