# BinNR microsec tot-time (s)  O-Beam AUX Ampl(V) f(Hz) phase(deg) chi(pos)
0 0.00 1500.02 188 598 0.740 10000.000 0.000 -0.835
1 3.00 1500.02 394 1167 0.740 10000.000 0.000 -0.835
2 6.00 1500.02 375 1274 0.740 10000.000 0.000 -0.835
3 9.00 1500.02 350 1249 0.740 10000.000 0.000 -0.835
4 12.00 1500.02 357 1207 0.740 10000.000 0.000 -0.835
5 15.00 1500.02 363 1199 0.740 10000.000 0.000 -0.835
6 18.00 1500.02 349 1245 0.740 10000.000 0.000 -0.835
7 21.00 1500.02 371 1152 0.740 10000.000 0.000 -0.835
8 24.00 1500.02 349 1160 0.740 10000.000 0.000 -0.835
9 27.00 1500.02 322 1201 0.740 10000.000 0.000 -0.835
10 30.00 1500.02 354 1185 0.740 10000.000 0.000 -0.835
11 33.00 1500.02 330 1113 0.740 10000.000 0.000 -0.835
12 36.00 1500.02 291 1067 0.740 10000.000 0.000 -0.835
13 39.00 1500.02 328 1100 0.740 10000.000 0.000 -0.835
14 42.00 1500.02 357 1165 0.740 10000.000 0.000 -0.835
15 45.00 1500.02 329 1197 0.740 10000.000 0.000 -0.835
16 48.00 1500.02 348 1183 0.740 10000.000 0.000 -0.835
17 51.00 1500.02 334 1225 0.740 10000.000 0.000 -0.835
18 54.00 1500.02 361 1220 0.740 10000.000 0.000 -0.835
19 57.00 1500.02 327 1188 0.740 10000.000 0.000 -0.835
20 60.00 1500.02 387 1262 0.740 10000.000 0.000 -0.835
21 63.00 1500.02 388 1241 0.740 10000.000 0.000 -0.835
22 66.00 1500.02 415 1200 0.740 10000.000 0.000 -0.835
23 69.00 1500.02 395 1183 0.740 10000.000 0.000 -0.835
24 72.00 1500.02 380 1142 0.740 10000.000 0.000 -0.835
25 75.00 1500.02 390 1133 0.740 10000.000 0.000 -0.835
26 78.00 1500.02 369 1086 0.740 10000.000 0.000 -0.835
27 81.00 1500.02 405 1117 0.740 10000.000 0.000 -0.835
28 84.00 1500.02 410 1042 0.740 10000.000 0.000 -0.835
29 87.00 1500.02 390 1056 0.740 10000.000 0.000 -0.835
30 90.00 1500.02 389 1029 0.740 10000.000 0.000 -0.835
31 93.00 1500.02 447 980 0.740 10000.000 0.000 -0.835
32 96.00 1500.02 407 1037 0.740 10000.000 0.000 -0.835
33 99.00 1500.02 414 1036 0.740 10000.000 0.000 -0.835
34 102.00 1500.02 407 1048 0.740 10000.000 0.000 -0.835
35 105.00 1500.02 358 1096 0.740 10000.000 0.000 -0.835
36 108.00 1500.02 370 1064 0.740 10000.000 0.000 -0.835
37 111.00 1500.02 373 1113 0.740 10000.000 0.000 -0.835
38 114.00 1500.02 350 1094 0.740 10000.000 0.000 -0.835
39 117.00 1500.02 382 1109 0.740 10000.000 0.000 -0.835
40 120.00 1500.02 321 1127 0.740 10000.000 0.000 -0.835
41 123.00 1500.02 334 1131 0.740 10000.000 0.000 -0.835
42 126.00 1500.02 342 1183 0.740 10000.000 0.000 -0.835
43 129.00 1500.02 277 1117 0.740 10000.000 0.000 -0.835
44 132.00 1500.02 288 1219 0.740 10000.000 0.000 -0.835
45 135.00 1500.02 359 1190 0.740 10000.000 0.000 -0.835
46 138.00 1500.02 330 1234 0.740 10000.000 0.000 -0.835
47 141.00 1500.02 337 1248 0.740 10000.000 0.000 -0.835
48 144.00 1500.02 339 1191 0.740 10000.000 0.000 -0.835
49 147.00 1500.02 360 1249 0.740 10000.000 0.000 -0.835
50 150.00 1500.02 359 1179 0.740 10000.000 0.000 -0.835
51 153.00 1500.02 347 1224 0.740 10000.000 0.000 -0.835
52 156.00 1500.02 343 1203 0.740 10000.000 0.000 -0.835
53 159.00 1500.02 345 1154 0.740 10000.000 0.000 -0.835
54 162.00 1500.02 370 1228 0.740 10000.000 0.000 -0.835
55 165.00 1500.02 391 1206 0.740 10000.000 0.000 -0.835
56 168.00 1500.02 424 1163 0.740 10000.000 0.000 -0.835
57 171.00 1500.02 375 1131 0.740 10000.000 0.000 -0.835
58 174.00 1500.02 394 1150 0.740 10000.000 0.000 -0.835
59 177.00 1500.02 408 1094 0.740 10000.000 0.000 -0.835
60 180.00 1500.02 434 1195 0.740 10000.000 0.000 -0.835
61 183.00 1500.02 395 1072 0.740 10000.000 0.000 -0.835
62 186.00 1500.02 438 1075 0.740 10000.000 0.000 -0.835
63 189.00 1500.02 384 1080 0.740 10000.000 0.000 -0.835
64 192.00 1500.02 408 1077 0.740 10000.000 0.000 -0.835
65 195.00 1500.02 346 998 0.740 10000.000 0.000 -0.835
66 198.00 1500.02 397 1001 0.740 10000.000 0.000 -0.835
67 201.00 1500.02 362 993 0.740 10000.000 0.000 -0.835
68 204.00 1500.02 367 1067 0.740 10000.000 0.000 -0.835
69 207.00 1500.02 339 999 0.740 10000.000 0.000 -0.835
70 210.00 1500.02 388 1086 0.740 10000.000 0.000 -0.835
71 213.00 1500.02 356 997 0.740 10000.000 0.000 -0.835
72 216.00 1500.02 329 1167 0.740 10000.000 0.000 -0.835
73 219.00 1500.02 335 1159 0.740 10000.000 0.000 -0.835
74 222.00 1500.02 343 1188 0.740 10000.000 0.000 -0.835
75 225.00 1500.02 333 1203 0.740 10000.000 0.000 -0.835
76 228.00 1500.02 347 1191 0.740 10000.000 0.000 -0.835
77 231.00 1500.02 326 1217 0.740 10000.000 0.000 -0.835
78 234.00 1500.02 337 1246 0.740 10000.000 0.000 -0.835
79 237.00 1500.02 325 1248 0.740 10000.000 0.000 -0.835
80 240.00 1500.02 335 1267 0.740 10000.000 0.000 -0.835
81 243.00 1500.02 281 1233 0.740 10000.000 0.000 -0.835
82 246.00 1500.02 315 1172 0.740 10000.000 0.000 -0.835
83 249.00 1500.02 341 1221 0.740 10000.000 0.000 -0.835
84 252.00 1500.02 344 1221 0.740 10000.000 0.000 -0.835
85 255.00 1500.02 362 1200 0.740 10000.000 0.000 -0.835
86 258.00 1500.02 369 1274 0.740 10000.000 0.000 -0.835
87 261.00 1500.02 370 1277 0.740 10000.000 0.000 -0.835
88 264.00 1500.02 390 1251 0.740 10000.000 0.000 -0.835
89 267.00 1500.02 375 1159 0.740 10000.000 0.000 -0.835
90 270.00 1500.02 369 1223 0.740 10000.000 0.000 -0.835
91 273.00 1500.02 369 1128 0.740 10000.000 0.000 -0.835
92 276.00 1500.02 380 1097 0.740 10000.000 0.000 -0.835
93 279.00 1500.02 379 1039 0.740 10000.000 0.000 -0.835
94 282.00 1500.02 412 1125 0.740 10000.000 0.000 -0.835
95 285.00 1500.02 373 1013 0.740 10000.000 0.000 -0.835
96 288.00 1500.02 383 1079 0.740 10000.000 0.000 -0.835
97 291.00 1500.02 385 1048 0.740 10000.000 0.000 -0.835
98 294.00 1500.02 388 1058 0.740 10000.000 0.000 -0.835
99 297.00 1500.02 393 1006 0.740 10000.000 0.000 -0.835
100 300.00 1500.02 367 1085 0.740 10000.000 0.000 -0.835
101 303.00 1500.02 349 1007 0.740 10000.000 0.000 -0.835
102 306.00 1500.02 372 1023 0.740 10000.000 0.000 -0.835
103 309.00 1500.02 355 1037 0.740 10000.000 0.000 -0.835
104 312.00 1500.02 355 1057 0.740 10000.000 0.000 -0.835
105 315.00 1500.02 350 1080 0.740 10000.000 0.000 -0.835
106 318.00 1500.02 364 1122 0.740 10000.000 0.000 -0.835
107 321.00 1500.02 403 1136 0.740 10000.000 0.000 -0.835
108 324.00 1500.02 397 1262 0.740 10000.000 0.000 -0.835
109 327.00 1500.02 387 1151 0.740 10000.000 0.000 -0.835
110 330.00 1500.02 394 1162 0.740 10000.000 0.000 -0.835
111 333.00 1500.02 381 1233 0.740 10000.000 0.000 -0.835
112 336.00 1500.02 384 1211 0.740 10000.000 0.000 -0.835
113 339.00 1500.02 346 1241 0.740 10000.000 0.000 -0.835
114 342.00 1500.02 338 1225 0.740 10000.000 0.000 -0.835
115 345.00 1500.02 370 1201 0.740 10000.000 0.000 -0.835
116 348.00 1500.02 339 1231 0.740 10000.000 0.000 -0.835
117 351.00 1500.02 351 1209 0.740 10000.000 0.000 -0.835
118 354.00 1500.02 352 1263 0.740 10000.000 0.000 -0.835
119 357.00 1500.02 337 1214 0.740 10000.000 0.000 -0.835
120 360.00 1500.02 351 1241 0.740 10000.000 0.000 -0.835
121 363.00 1500.02 332 1253 0.740 10000.000 0.000 -0.835
122 366.00 1500.02 317 1151 0.740 10000.000 0.000 -0.835
123 369.00 1500.02 316 1182 0.740 10000.000 0.000 -0.835
124 372.00 1500.02 341 1192 0.740 10000.000 0.000 -0.835
125 375.00 1500.02 311 1060 0.740 10000.000 0.000 -0.835
126 378.00 1500.02 318 1152 0.740 10000.000 0.000 -0.835
127 381.00 1500.02 322 1091 0.740 10000.000 0.000 -0.835
128 384.00 1500.02 346 1054 0.740 10000.000 0.000 -0.835
129 387.00 1500.02 374 1093 0.740 10000.000 0.000 -0.835
130 390.00 1500.02 391 999 0.740 10000.000 0.000 -0.835
131 393.00 1500.02 346 1066 0.740 10000.000 0.000 -0.835
132 396.00 1500.02 366 1006 0.740 10000.000 0.000 -0.835
133 399.00 1500.02 402 1023 0.740 10000.000 0.000 -0.835
134 402.00 1500.02 388 1056 0.740 10000.000 0.000 -0.835
135 405.00 1500.02 371 1016 0.740 10000.000 0.000 -0.835
136 408.00 1500.02 398 1067 0.740 10000.000 0.000 -0.835
137 411.00 1500.02 372 1076 0.740 10000.000 0.000 -0.835
138 414.00 1500.02 408 1149 0.740 10000.000 0.000 -0.835
139 417.00 1500.02 417 1100 0.740 10000.000 0.000 -0.835
140 420.00 1500.02 360 1116 0.740 10000.000 0.000 -0.835
141 423.00 1500.02 388 1162 0.740 10000.000 0.000 -0.835
142 426.00 1500.02 426 1194 0.740 10000.000 0.000 -0.835
143 429.00 1500.02 412 1134 0.740 10000.000 0.000 -0.835
144 432.00 1500.02 368 1167 0.740 10000.000 0.000 -0.835
