# BinNR microsec tot-time (s)  O-Beam AUX Ampl(V) f(Hz) phase(deg) chi(pos)
0 0.00 1200.00 74 69 1.100 10000.000 0.000 0.154
1 3.00 1200.00 133 125 1.100 10000.000 0.000 0.154
2 6.00 1200.00 167 116 1.100 10000.000 0.000 0.154
3 9.00 1200.00 153 120 1.100 10000.000 0.000 0.154
4 12.00 1200.00 144 119 1.100 10000.000 0.000 0.154
5 15.00 1200.00 157 150 1.100 10000.000 0.000 0.154
6 18.00 1200.00 181 146 1.100 10000.000 0.000 0.154
7 21.00 1200.00 164 184 1.100 10000.000 0.000 0.154
8 24.00 1200.00 180 184 1.100 10000.000 0.000 0.154
9 27.00 1200.00 173 205 1.100 10000.000 0.000 0.154
10 30.00 1200.00 184 221 1.100 10000.000 0.000 0.154
11 33.00 1200.00 201 230 1.100 10000.000 0.000 0.154
12 36.00 1200.00 173 214 1.100 10000.000 0.000 0.154
13 39.00 1200.00 188 207 1.100 10000.000 0.000 0.154
14 42.00 1200.00 186 168 1.100 10000.000 0.000 0.154
15 45.00 1200.00 186 177 1.100 10000.000 0.000 0.154
16 48.00 1200.00 184 172 1.100 10000.000 0.000 0.154
17 51.00 1200.00 140 142 1.100 10000.000 0.000 0.154
18 54.00 1200.00 156 116 1.100 10000.000 0.000 0.154
19 57.00 1200.00 143 119 1.100 10000.000 0.000 0.154
20 60.00 1200.00 153 126 1.100 10000.000 0.000 0.154
21 63.00 1200.00 160 152 1.100 10000.000 0.000 0.154
22 66.00 1200.00 137 141 1.100 10000.000 0.000 0.154
23 69.00 1200.00 140 135 1.100 10000.000 0.000 0.154
24 72.00 1200.00 123 165 1.100 10000.000 0.000 0.154
25 75.00 1200.00 97 200 1.100 10000.000 0.000 0.154
26 78.00 1200.00 123 246 1.100 10000.000 0.000 0.154
27 81.00 1200.00 109 247 1.100 10000.000 0.000 0.154
28 84.00 1200.00 91 285 1.100 10000.000 0.000 0.154
29 87.00 1200.00 108 292 1.100 10000.000 0.000 0.154
30 90.00 1200.00 122 315 1.100 10000.000 0.000 0.154
31 93.00 1200.00 101 316 1.100 10000.000 0.000 0.154
32 96.00 1200.00 97 317 1.100 10000.000 0.000 0.154
33 99.00 1200.00 137 321 1.100 10000.000 0.000 0.154
34 102.00 1200.00 134 317 1.100 10000.000 0.000 0.154
35 105.00 1200.00 130 300 1.100 10000.000 0.000 0.154
36 108.00 1200.00 164 275 1.100 10000.000 0.000 0.154
37 111.00 1200.00 148 252 1.100 10000.000 0.000 0.154
38 114.00 1200.00 164 238 1.100 10000.000 0.000 0.154
39 117.00 1200.00 148 231 1.100 10000.000 0.000 0.154
40 120.00 1200.00 176 211 1.100 10000.000 0.000 0.154
41 123.00 1200.00 174 167 1.100 10000.000 0.000 0.154
42 126.00 1200.00 184 163 1.100 10000.000 0.000 0.154
43 129.00 1200.00 193 169 1.100 10000.000 0.000 0.154
44 132.00 1200.00 195 135 1.100 10000.000 0.000 0.154
45 135.00 1200.00 174 133 1.100 10000.000 0.000 0.154
46 138.00 1200.00 163 109 1.100 10000.000 0.000 0.154
47 141.00 1200.00 161 101 1.100 10000.000 0.000 0.154
48 144.00 1200.00 175 106 1.100 10000.000 0.000 0.154
49 147.00 1200.00 164 96 1.100 10000.000 0.000 0.154
50 150.00 1200.00 147 78 1.100 10000.000 0.000 0.154
51 153.00 1200.00 160 91 1.100 10000.000 0.000 0.154
52 156.00 1200.00 144 130 1.100 10000.000 0.000 0.154
53 159.00 1200.00 142 119 1.100 10000.000 0.000 0.154
54 162.00 1200.00 137 163 1.100 10000.000 0.000 0.154
55 165.00 1200.00 129 148 1.100 10000.000 0.000 0.154
56 168.00 1200.00 120 158 1.100 10000.000 0.000 0.154
57 171.00 1200.00 121 188 1.100 10000.000 0.000 0.154
58 174.00 1200.00 110 208 1.100 10000.000 0.000 0.154
59 177.00 1200.00 114 216 1.100 10000.000 0.000 0.154
60 180.00 1200.00 103 252 1.100 10000.000 0.000 0.154
61 183.00 1200.00 92 326 1.100 10000.000 0.000 0.154
62 186.00 1200.00 100 324 1.100 10000.000 0.000 0.154
63 189.00 1200.00 116 312 1.100 10000.000 0.000 0.154
64 192.00 1200.00 99 318 1.100 10000.000 0.000 0.154
65 195.00 1200.00 125 323 1.100 10000.000 0.000 0.154
66 198.00 1200.00 129 332 1.100 10000.000 0.000 0.154
67 201.00 1200.00 110 280 1.100 10000.000 0.000 0.154
68 204.00 1200.00 142 295 1.100 10000.000 0.000 0.154
69 207.00 1200.00 150 287 1.100 10000.000 0.000 0.154
70 210.00 1200.00 133 253 1.100 10000.000 0.000 0.154
71 213.00 1200.00 141 285 1.100 10000.000 0.000 0.154
72 216.00 1200.00 177 216 1.100 10000.000 0.000 0.154
73 219.00 1200.00 168 237 1.100 10000.000 0.000 0.154
74 222.00 1200.00 183 188 1.100 10000.000 0.000 0.154
75 225.00 1200.00 190 188 1.100 10000.000 0.000 0.154
76 228.00 1200.00 186 142 1.100 10000.000 0.000 0.154
77 231.00 1200.00 176 133 1.100 10000.000 0.000 0.154
78 234.00 1200.00 208 115 1.100 10000.000 0.000 0.154
79 237.00 1200.00 197 97 1.100 10000.000 0.000 0.154
80 240.00 1200.00 203 101 1.100 10000.000 0.000 0.154
81 243.00 1200.00 144 102 1.100 10000.000 0.000 0.154
82 246.00 1200.00 172 98 1.100 10000.000 0.000 0.154
83 249.00 1200.00 182 110 1.100 10000.000 0.000 0.154
84 252.00 1200.00 170 111 1.100 10000.000 0.000 0.154
85 255.00 1200.00 155 130 1.100 10000.000 0.000 0.154
86 258.00 1200.00 143 123 1.100 10000.000 0.000 0.154
87 261.00 1200.00 129 150 1.100 10000.000 0.000 0.154
88 264.00 1200.00 123 144 1.100 10000.000 0.000 0.154
89 267.00 1200.00 128 154 1.100 10000.000 0.000 0.154
90 270.00 1200.00 130 208 1.100 10000.000 0.000 0.154
91 273.00 1200.00 113 197 1.100 10000.000 0.000 0.154
92 276.00 1200.00 95 257 1.100 10000.000 0.000 0.154
93 279.00 1200.00 123 256 1.100 10000.000 0.000 0.154
94 282.00 1200.00 125 261 1.100 10000.000 0.000 0.154
95 285.00 1200.00 151 337 1.100 10000.000 0.000 0.154
96 288.00 1200.00 131 345 1.100 10000.000 0.000 0.154
97 291.00 1200.00 127 313 1.100 10000.000 0.000 0.154
98 294.00 1200.00 131 322 1.100 10000.000 0.000 0.154
99 297.00 1200.00 121 328 1.100 10000.000 0.000 0.154
100 300.00 1200.00 149 306 1.100 10000.000 0.000 0.154
101 303.00 1200.00 147 322 1.100 10000.000 0.000 0.154
102 306.00 1200.00 173 272 1.100 10000.000 0.000 0.154
103 309.00 1200.00 160 274 1.100 10000.000 0.000 0.154
104 312.00 1200.00 140 257 1.100 10000.000 0.000 0.154
105 315.00 1200.00 131 218 1.100 10000.000 0.000 0.154
106 318.00 1200.00 127 223 1.100 10000.000 0.000 0.154
107 321.00 1200.00 140 196 1.100 10000.000 0.000 0.154
108 324.00 1200.00 129 183 1.100 10000.000 0.000 0.154
109 327.00 1200.00 166 143 1.100 10000.000 0.000 0.154
110 330.00 1200.00 143 124 1.100 10000.000 0.000 0.154
111 333.00 1200.00 135 124 1.100 10000.000 0.000 0.154
112 336.00 1200.00 118 114 1.100 10000.000 0.000 0.154
113 339.00 1200.00 124 114 1.100 10000.000 0.000 0.154
114 342.00 1200.00 151 112 1.100 10000.000 0.000 0.154
115 345.00 1200.00 155 127 1.100 10000.000 0.000 0.154
116 348.00 1200.00 180 112 1.100 10000.000 0.000 0.154
117 351.00 1200.00 155 105 1.100 10000.000 0.000 0.154
118 354.00 1200.00 168 122 1.100 10000.000 0.000 0.154
119 357.00 1200.00 183 123 1.100 10000.000 0.000 0.154
120 360.00 1200.00 178 109 1.100 10000.000 0.000 0.154
121 363.00 1200.00 174 130 1.100 10000.000 0.000 0.154
122 366.00 1200.00 190 155 1.100 10000.000 0.000 0.154
123 369.00 1200.00 199 197 1.100 10000.000 0.000 0.154
124 372.00 1200.00 175 189 1.100 10000.000 0.000 0.154
125 375.00 1200.00 198 202 1.100 10000.000 0.000 0.154
126 378.00 1200.00 193 257 1.100 10000.000 0.000 0.154
127 381.00 1200.00 163 286 1.100 10000.000 0.000 0.154
128 384.00 1200.00 170 307 1.100 10000.000 0.000 0.154
129 387.00 1200.00 168 308 1.100 10000.000 0.000 0.154
130 390.00 1200.00 160 300 1.100 10000.000 0.000 0.154
131 393.00 1200.00 137 296 1.100 10000.000 0.000 0.154
132 396.00 1200.00 149 334 1.100 10000.000 0.000 0.154
133 399.00 1200.00 143 320 1.100 10000.000 0.000 0.154
134 402.00 1200.00 109 283 1.100 10000.000 0.000 0.154
135 405.00 1200.00 115 309 1.100 10000.000 0.000 0.154
136 408.00 1200.00 100 314 1.100 10000.000 0.000 0.154
137 411.00 1200.00 122 257 1.100 10000.000 0.000 0.154
138 414.00 1200.00 119 261 1.100 10000.000 0.000 0.154
139 417.00 1200.00 109 232 1.100 10000.000 0.000 0.154
140 420.00 1200.00 96 196 1.100 10000.000 0.000 0.154
141 423.00 1200.00 109 227 1.100 10000.000 0.000 0.154
142 426.00 1200.00 115 138 1.100 10000.000 0.000 0.154
143 429.00 1200.00 105 125 1.100 10000.000 0.000 0.154
144 432.00 1200.00 113 131 1.100 10000.000 0.000 0.154
