# BinNR microsec tot-time (s)  O-Beam AUX Ampl(V) f(Hz) phase(deg) chi(pos)
0 0.00 1200.01 117 168 1.100 10000.000 0.000 -0.176
1 3.00 1200.01 192 330 1.100 10000.000 0.000 -0.176
2 6.00 1200.01 204 338 1.100 10000.000 0.000 -0.176
3 9.00 1200.01 213 331 1.100 10000.000 0.000 -0.176
4 12.00 1200.01 218 369 1.100 10000.000 0.000 -0.176
5 15.00 1200.01 209 344 1.100 10000.000 0.000 -0.176
6 18.00 1200.01 239 392 1.100 10000.000 0.000 -0.176
7 21.00 1200.01 244 414 1.100 10000.000 0.000 -0.176
8 24.00 1200.01 233 468 1.100 10000.000 0.000 -0.176
9 27.00 1200.01 257 398 1.100 10000.000 0.000 -0.176
10 30.00 1200.01 229 483 1.100 10000.000 0.000 -0.176
11 33.00 1200.01 221 439 1.100 10000.000 0.000 -0.176
12 36.00 1200.01 246 451 1.100 10000.000 0.000 -0.176
13 39.00 1200.01 254 459 1.100 10000.000 0.000 -0.176
14 42.00 1200.01 243 454 1.100 10000.000 0.000 -0.176
15 45.00 1200.01 250 415 1.100 10000.000 0.000 -0.176
16 48.00 1200.01 225 428 1.100 10000.000 0.000 -0.176
17 51.00 1200.01 230 387 1.100 10000.000 0.000 -0.176
18 54.00 1200.01 211 382 1.100 10000.000 0.000 -0.176
19 57.00 1200.01 227 346 1.100 10000.000 0.000 -0.176
20 60.00 1200.01 214 367 1.100 10000.000 0.000 -0.176
21 63.00 1200.01 226 349 1.100 10000.000 0.000 -0.176
22 66.00 1200.01 190 349 1.100 10000.000 0.000 -0.176
23 69.00 1200.01 181 379 1.100 10000.000 0.000 -0.176
24 72.00 1200.01 208 423 1.100 10000.000 0.000 -0.176
25 75.00 1200.01 191 479 1.100 10000.000 0.000 -0.176
26 78.00 1200.01 203 461 1.100 10000.000 0.000 -0.176
27 81.00 1200.01 179 513 1.100 10000.000 0.000 -0.176
28 84.00 1200.01 192 557 1.100 10000.000 0.000 -0.176
29 87.00 1200.01 159 513 1.100 10000.000 0.000 -0.176
30 90.00 1200.01 206 582 1.100 10000.000 0.000 -0.176
31 93.00 1200.01 172 561 1.100 10000.000 0.000 -0.176
32 96.00 1200.01 203 547 1.100 10000.000 0.000 -0.176
33 99.00 1200.01 190 515 1.100 10000.000 0.000 -0.176
34 102.00 1200.01 218 564 1.100 10000.000 0.000 -0.176
35 105.00 1200.01 191 574 1.100 10000.000 0.000 -0.176
36 108.00 1200.01 229 566 1.100 10000.000 0.000 -0.176
37 111.00 1200.01 206 554 1.100 10000.000 0.000 -0.176
38 114.00 1200.01 240 515 1.100 10000.000 0.000 -0.176
39 117.00 1200.01 242 426 1.100 10000.000 0.000 -0.176
40 120.00 1200.01 227 424 1.100 10000.000 0.000 -0.176
41 123.00 1200.01 257 412 1.100 10000.000 0.000 -0.176
42 126.00 1200.01 235 409 1.100 10000.000 0.000 -0.176
43 129.00 1200.01 239 371 1.100 10000.000 0.000 -0.176
44 132.00 1200.01 226 347 1.100 10000.000 0.000 -0.176
45 135.00 1200.01 246 313 1.100 10000.000 0.000 -0.176
46 138.00 1200.01 237 278 1.100 10000.000 0.000 -0.176
47 141.00 1200.01 242 325 1.100 10000.000 0.000 -0.176
48 144.00 1200.01 230 329 1.100 10000.000 0.000 -0.176
49 147.00 1200.01 252 325 1.100 10000.000 0.000 -0.176
50 150.00 1200.01 253 327 1.100 10000.000 0.000 -0.176
51 153.00 1200.01 235 315 1.100 10000.000 0.000 -0.176
52 156.00 1200.01 238 344 1.100 10000.000 0.000 -0.176
53 159.00 1200.01 236 357 1.100 10000.000 0.000 -0.176
54 162.00 1200.01 230 353 1.100 10000.000 0.000 -0.176
55 165.00 1200.01 208 341 1.100 10000.000 0.000 -0.176
56 168.00 1200.01 196 423 1.100 10000.000 0.000 -0.176
57 171.00 1200.01 192 432 1.100 10000.000 0.000 -0.176
58 174.00 1200.01 211 504 1.100 10000.000 0.000 -0.176
59 177.00 1200.01 207 506 1.100 10000.000 0.000 -0.176
60 180.00 1200.01 199 488 1.100 10000.000 0.000 -0.176
61 183.00 1200.01 154 502 1.100 10000.000 0.000 -0.176
62 186.00 1200.01 195 540 1.100 10000.000 0.000 -0.176
63 189.00 1200.01 216 551 1.100 10000.000 0.000 -0.176
64 192.00 1200.01 207 566 1.100 10000.000 0.000 -0.176
65 195.00 1200.01 204 556 1.100 10000.000 0.000 -0.176
66 198.00 1200.01 226 563 1.100 10000.000 0.000 -0.176
67 201.00 1200.01 200 526 1.100 10000.000 0.000 -0.176
68 204.00 1200.01 214 537 1.100 10000.000 0.000 -0.176
69 207.00 1200.01 214 498 1.100 10000.000 0.000 -0.176
70 210.00 1200.01 223 533 1.100 10000.000 0.000 -0.176
71 213.00 1200.01 215 491 1.100 10000.000 0.000 -0.176
72 216.00 1200.01 241 526 1.100 10000.000 0.000 -0.176
73 219.00 1200.01 248 498 1.100 10000.000 0.000 -0.176
74 222.00 1200.01 251 433 1.100 10000.000 0.000 -0.176
75 225.00 1200.01 235 405 1.100 10000.000 0.000 -0.176
76 228.00 1200.01 227 393 1.100 10000.000 0.000 -0.176
77 231.00 1200.01 244 322 1.100 10000.000 0.000 -0.176
78 234.00 1200.01 237 366 1.100 10000.000 0.000 -0.176
79 237.00 1200.01 227 324 1.100 10000.000 0.000 -0.176
80 240.00 1200.01 251 319 1.100 10000.000 0.000 -0.176
81 243.00 1200.01 225 266 1.100 10000.000 0.000 -0.176
82 246.00 1200.01 245 321 1.100 10000.000 0.000 -0.176
83 249.00 1200.01 228 322 1.100 10000.000 0.000 -0.176
84 252.00 1200.01 227 311 1.100 10000.000 0.000 -0.176
85 255.00 1200.01 236 346 1.100 10000.000 0.000 -0.176
86 258.00 1200.01 228 336 1.100 10000.000 0.000 -0.176
87 261.00 1200.01 216 342 1.100 10000.000 0.000 -0.176
88 264.00 1200.01 212 415 1.100 10000.000 0.000 -0.176
89 267.00 1200.01 193 458 1.100 10000.000 0.000 -0.176
90 270.00 1200.01 225 467 1.100 10000.000 0.000 -0.176
91 273.00 1200.01 195 481 1.100 10000.000 0.000 -0.176
92 276.00 1200.01 213 508 1.100 10000.000 0.000 -0.176
93 279.00 1200.01 202 501 1.100 10000.000 0.000 -0.176
94 282.00 1200.01 182 521 1.100 10000.000 0.000 -0.176
95 285.00 1200.01 183 562 1.100 10000.000 0.000 -0.176
96 288.00 1200.01 206 564 1.100 10000.000 0.000 -0.176
97 291.00 1200.01 188 563 1.100 10000.000 0.000 -0.176
98 294.00 1200.01 209 551 1.100 10000.000 0.000 -0.176
99 297.00 1200.01 219 553 1.100 10000.000 0.000 -0.176
100 300.00 1200.01 237 558 1.100 10000.000 0.000 -0.176
101 303.00 1200.01 191 566 1.100 10000.000 0.000 -0.176
102 306.00 1200.01 260 549 1.100 10000.000 0.000 -0.176
103 309.00 1200.01 221 522 1.100 10000.000 0.000 -0.176
104 312.00 1200.01 194 547 1.100 10000.000 0.000 -0.176
105 315.00 1200.01 198 525 1.100 10000.000 0.000 -0.176
106 318.00 1200.01 217 491 1.100 10000.000 0.000 -0.176
107 321.00 1200.01 204 466 1.100 10000.000 0.000 -0.176
108 324.00 1200.01 190 421 1.100 10000.000 0.000 -0.176
109 327.00 1200.01 239 417 1.100 10000.000 0.000 -0.176
110 330.00 1200.01 228 401 1.100 10000.000 0.000 -0.176
111 333.00 1200.01 229 353 1.100 10000.000 0.000 -0.176
112 336.00 1200.01 196 346 1.100 10000.000 0.000 -0.176
113 339.00 1200.01 210 313 1.100 10000.000 0.000 -0.176
114 342.00 1200.01 224 305 1.100 10000.000 0.000 -0.176
115 345.00 1200.01 225 298 1.100 10000.000 0.000 -0.176
116 348.00 1200.01 231 318 1.100 10000.000 0.000 -0.176
117 351.00 1200.01 225 282 1.100 10000.000 0.000 -0.176
118 354.00 1200.01 232 322 1.100 10000.000 0.000 -0.176
119 357.00 1200.01 201 362 1.100 10000.000 0.000 -0.176
120 360.00 1200.01 224 369 1.100 10000.000 0.000 -0.176
121 363.00 1200.01 240 362 1.100 10000.000 0.000 -0.176
122 366.00 1200.01 239 421 1.100 10000.000 0.000 -0.176
123 369.00 1200.01 231 440 1.100 10000.000 0.000 -0.176
124 372.00 1200.01 236 471 1.100 10000.000 0.000 -0.176
125 375.00 1200.01 251 484 1.100 10000.000 0.000 -0.176
126 378.00 1200.01 246 514 1.100 10000.000 0.000 -0.176
127 381.00 1200.01 250 512 1.100 10000.000 0.000 -0.176
128 384.00 1200.01 259 556 1.100 10000.000 0.000 -0.176
129 387.00 1200.01 222 498 1.100 10000.000 0.000 -0.176
130 390.00 1200.01 227 525 1.100 10000.000 0.000 -0.176
131 393.00 1200.01 210 572 1.100 10000.000 0.000 -0.176
132 396.00 1200.01 202 539 1.100 10000.000 0.000 -0.176
133 399.00 1200.01 207 535 1.100 10000.000 0.000 -0.176
134 402.00 1200.01 227 545 1.100 10000.000 0.000 -0.176
135 405.00 1200.01 203 552 1.100 10000.000 0.000 -0.176
136 408.00 1200.01 212 555 1.100 10000.000 0.000 -0.176
137 411.00 1200.01 189 476 1.100 10000.000 0.000 -0.176
138 414.00 1200.01 216 530 1.100 10000.000 0.000 -0.176
139 417.00 1200.01 196 483 1.100 10000.000 0.000 -0.176
140 420.00 1200.01 194 485 1.100 10000.000 0.000 -0.176
141 423.00 1200.01 177 398 1.100 10000.000 0.000 -0.176
142 426.00 1200.01 190 385 1.100 10000.000 0.000 -0.176
143 429.00 1200.01 231 374 1.100 10000.000 0.000 -0.176
144 432.00 1200.01 199 354 1.100 10000.000 0.000 -0.176
