# BinNR microsec tot-time (s)  O-Beam AUX Ampl_1(V) f_1(Hz) phase_1(deg) Ampl_2(V) f_2(Hz) phase_2(deg) chi(pos)
0 0.00 1200.02 66 299 0.901 3.100 10000.000 0.000
1 3.00 1200.02 131 587 0.901 3.100 10000.000 0.000
2 6.00 1200.02 152 547 0.901 3.100 10000.000 0.000
3 9.00 1200.02 164 565 0.901 3.100 10000.000 0.000
4 12.00 1200.02 180 577 0.901 3.100 10000.000 0.000
5 15.00 1200.02 177 541 0.901 3.100 10000.000 0.000
6 18.00 1200.02 213 564 0.901 3.100 10000.000 0.000
7 21.00 1200.02 219 539 0.901 3.100 10000.000 0.000
8 24.00 1200.02 240 587 0.901 3.100 10000.000 0.000
9 27.00 1200.02 201 528 0.901 3.100 10000.000 0.000
10 30.00 1200.02 257 615 0.901 3.100 10000.000 0.000
11 33.00 1200.02 224 559 0.901 3.100 10000.000 0.000
12 36.00 1200.02 223 573 0.901 3.100 10000.000 0.000
13 39.00 1200.02 258 602 0.901 3.100 10000.000 0.000
14 42.00 1200.02 220 666 0.901 3.100 10000.000 0.000
15 45.00 1200.02 231 721 0.901 3.100 10000.000 0.000
16 48.00 1200.02 205 775 0.901 3.100 10000.000 0.000
17 51.00 1200.02 177 800 0.901 3.100 10000.000 0.000
18 54.00 1200.02 176 740 0.901 3.100 10000.000 0.000
19 57.00 1200.02 196 702 0.901 3.100 10000.000 0.000
20 60.00 1200.02 173 653 0.901 3.100 10000.000 0.000
21 63.00 1200.02 171 570 0.901 3.100 10000.000 0.000
22 66.00 1200.02 155 530 0.901 3.100 10000.000 0.000
23 69.00 1200.02 148 510 0.901 3.100 10000.000 0.000
24 72.00 1200.02 127 428 0.901 3.100 10000.000 0.000
25 75.00 1200.02 115 404 0.901 3.100 10000.000 0.000
26 78.00 1200.02 136 381 0.901 3.100 10000.000 0.000
27 81.00 1200.02 120 364 0.901 3.100 10000.000 0.000
28 84.00 1200.02 119 343 0.901 3.100 10000.000 0.000
29 87.00 1200.02 122 351 0.901 3.100 10000.000 0.000
30 90.00 1200.02 112 359 0.901 3.100 10000.000 0.000
31 93.00 1200.02 120 369 0.901 3.100 10000.000 0.000
32 96.00 1200.02 116 372 0.901 3.100 10000.000 0.000
33 99.00 1200.02 138 373 0.901 3.100 10000.000 0.000
34 102.00 1200.02 133 392 0.901 3.100 10000.000 0.000
35 105.00 1200.02 153 438 0.901 3.100 10000.000 0.000
36 108.00 1200.02 142 501 0.901 3.100 10000.000 0.000
37 111.00 1200.02 176 494 0.901 3.100 10000.000 0.000
38 114.00 1200.02 196 597 0.901 3.100 10000.000 0.000
39 117.00 1200.02 175 659 0.901 3.100 10000.000 0.000
40 120.00 1200.02 181 673 0.901 3.100 10000.000 0.000
41 123.00 1200.02 217 739 0.901 3.100 10000.000 0.000
42 126.00 1200.02 239 744 0.901 3.100 10000.000 0.000
43 129.00 1200.02 222 748 0.901 3.100 10000.000 0.000
44 132.00 1200.02 224 789 0.901 3.100 10000.000 0.000
45 135.00 1200.02 189 794 0.901 3.100 10000.000 0.000
46 138.00 1200.02 179 774 0.901 3.100 10000.000 0.000
47 141.00 1200.02 179 798 0.901 3.100 10000.000 0.000
48 144.00 1200.02 178 816 0.901 3.100 10000.000 0.000
49 147.00 1200.02 182 772 0.901 3.100 10000.000 0.000
50 150.00 1200.02 163 767 0.901 3.100 10000.000 0.000
51 153.00 1200.02 153 697 0.901 3.100 10000.000 0.000
52 156.00 1200.02 171 688 0.901 3.100 10000.000 0.000
53 159.00 1200.02 167 614 0.901 3.100 10000.000 0.000
54 162.00 1200.02 178 600 0.901 3.100 10000.000 0.000
55 165.00 1200.02 173 572 0.901 3.100 10000.000 0.000
56 168.00 1200.02 167 520 0.901 3.100 10000.000 0.000
57 171.00 1200.02 176 482 0.901 3.100 10000.000 0.000
58 174.00 1200.02 175 435 0.901 3.100 10000.000 0.000
59 177.00 1200.02 201 409 0.901 3.100 10000.000 0.000
60 180.00 1200.02 155 347 0.901 3.100 10000.000 0.000
61 183.00 1200.02 174 378 0.901 3.100 10000.000 0.000
62 186.00 1200.02 179 317 0.901 3.100 10000.000 0.000
63 189.00 1200.02 148 314 0.901 3.100 10000.000 0.000
64 192.00 1200.02 170 338 0.901 3.100 10000.000 0.000
65 195.00 1200.02 184 381 0.901 3.100 10000.000 0.000
66 198.00 1200.02 174 381 0.901 3.100 10000.000 0.000
67 201.00 1200.02 175 368 0.901 3.100 10000.000 0.000
68 204.00 1200.02 172 482 0.901 3.100 10000.000 0.000
69 207.00 1200.02 163 481 0.901 3.100 10000.000 0.000
70 210.00 1200.02 179 515 0.901 3.100 10000.000 0.000
71 213.00 1200.02 161 562 0.901 3.100 10000.000 0.000
72 216.00 1200.02 160 582 0.901 3.100 10000.000 0.000
73 219.00 1200.02 166 600 0.901 3.100 10000.000 0.000
74 222.00 1200.02 168 731 0.901 3.100 10000.000 0.000
75 225.00 1200.02 198 689 0.901 3.100 10000.000 0.000
76 228.00 1200.02 174 731 0.901 3.100 10000.000 0.000
77 231.00 1200.02 165 813 0.901 3.100 10000.000 0.000
78 234.00 1200.02 162 838 0.901 3.100 10000.000 0.000
79 237.00 1200.02 186 782 0.901 3.100 10000.000 0.000
80 240.00 1200.02 158 729 0.901 3.100 10000.000 0.000
81 243.00 1200.02 179 646 0.901 3.100 10000.000 0.000
82 246.00 1200.02 153 605 0.901 3.100 10000.000 0.000
83 249.00 1200.02 176 499 0.901 3.100 10000.000 0.000
84 252.00 1200.02 158 474 0.901 3.100 10000.000 0.000
85 255.00 1200.02 152 511 0.901 3.100 10000.000 0.000
86 258.00 1200.02 183 485 0.901 3.100 10000.000 0.000
87 261.00 1200.02 196 474 0.901 3.100 10000.000 0.000
88 264.00 1200.02 159 538 0.901 3.100 10000.000 0.000
89 267.00 1200.02 160 550 0.901 3.100 10000.000 0.000
90 270.00 1200.02 155 605 0.901 3.100 10000.000 0.000
91 273.00 1200.02 186 612 0.901 3.100 10000.000 0.000
92 276.00 1200.02 158 610 0.901 3.100 10000.000 0.000
93 279.00 1200.02 182 574 0.901 3.100 10000.000 0.000
94 282.00 1200.02 172 531 0.901 3.100 10000.000 0.000
95 285.00 1200.02 180 594 0.901 3.100 10000.000 0.000
96 288.00 1200.02 166 498 0.901 3.100 10000.000 0.000
97 291.00 1200.02 193 521 0.901 3.100 10000.000 0.000
98 294.00 1200.02 170 524 0.901 3.100 10000.000 0.000
99 297.00 1200.02 162 550 0.901 3.100 10000.000 0.000
100 300.00 1200.02 206 567 0.901 3.100 10000.000 0.000
101 303.00 1200.02 149 556 0.901 3.100 10000.000 0.000
102 306.00 1200.02 170 594 0.901 3.100 10000.000 0.000
103 309.00 1200.02 187 573 0.901 3.100 10000.000 0.000
104 312.00 1200.02 199 582 0.901 3.100 10000.000 0.000
105 315.00 1200.02 156 587 0.901 3.100 10000.000 0.000
106 318.00 1200.02 182 552 0.901 3.100 10000.000 0.000
107 321.00 1200.02 181 582 0.901 3.100 10000.000 0.000
108 324.00 1200.02 177 574 0.901 3.100 10000.000 0.000
109 327.00 1200.02 186 599 0.901 3.100 10000.000 0.000
110 330.00 1200.02 186 601 0.901 3.100 10000.000 0.000
111 333.00 1200.02 164 535 0.901 3.100 10000.000 0.000
112 336.00 1200.02 196 566 0.901 3.100 10000.000 0.000
113 339.00 1200.02 204 587 0.901 3.100 10000.000 0.000
114 342.00 1200.02 187 580 0.901 3.100 10000.000 0.000
115 345.00 1200.02 199 516 0.901 3.100 10000.000 0.000
116 348.00 1200.02 202 589 0.901 3.100 10000.000 0.000
117 351.00 1200.02 209 520 0.901 3.100 10000.000 0.000
118 354.00 1200.02 214 547 0.901 3.100 10000.000 0.000
119 357.00 1200.02 222 567 0.901 3.100 10000.000 0.000
120 360.00 1200.02 204 568 0.901 3.100 10000.000 0.000
121 363.00 1200.02 191 577 0.901 3.100 10000.000 0.000
122 366.00 1200.02 193 545 0.901 3.100 10000.000 0.000
123 369.00 1200.02 149 552 0.901 3.100 10000.000 0.000
124 372.00 1200.02 133 557 0.901 3.100 10000.000 0.000
125 375.00 1200.02 122 566 0.901 3.100 10000.000 0.000
126 378.00 1200.02 125 605 0.901 3.100 10000.000 0.000
127 381.00 1200.02 140 552 0.901 3.100 10000.000 0.000
128 384.00 1200.02 128 562 0.901 3.100 10000.000 0.000
129 387.00 1200.02 122 572 0.901 3.100 10000.000 0.000
130 390.00 1200.02 128 590 0.901 3.100 10000.000 0.000
131 393.00 1200.02 114 575 0.901 3.100 10000.000 0.000
132 396.00 1200.02 121 550 0.901 3.100 10000.000 0.000
133 399.00 1200.02 124 519 0.901 3.100 10000.000 0.000
134 402.00 1200.02 125 607 0.901 3.100 10000.000 0.000
