# BinNR microsec tot-time (s)  O-Beam AUX Ampl(V) f(Hz) phase(deg) chi(pos)
0 0.00 1200.02 157 278 1.000 10000.000 0.000 -0.143
1 3.00 1200.02 256 497 1.000 10000.000 0.000 -0.143
2 6.00 1200.02 292 565 1.000 10000.000 0.000 -0.143
3 9.00 1200.02 248 483 1.000 10000.000 0.000 -0.143
4 12.00 1200.02 288 499 1.000 10000.000 0.000 -0.143
5 15.00 1200.02 285 499 1.000 10000.000 0.000 -0.143
6 18.00 1200.02 266 518 1.000 10000.000 0.000 -0.143
7 21.00 1200.02 264 477 1.000 10000.000 0.000 -0.143
8 24.00 1200.02 284 517 1.000 10000.000 0.000 -0.143
9 27.00 1200.02 248 562 1.000 10000.000 0.000 -0.143
10 30.00 1200.02 244 569 1.000 10000.000 0.000 -0.143
11 33.00 1200.02 239 566 1.000 10000.000 0.000 -0.143
12 36.00 1200.02 261 570 1.000 10000.000 0.000 -0.143
13 39.00 1200.02 220 574 1.000 10000.000 0.000 -0.143
14 42.00 1200.02 262 630 1.000 10000.000 0.000 -0.143
15 45.00 1200.02 230 634 1.000 10000.000 0.000 -0.143
16 48.00 1200.02 225 630 1.000 10000.000 0.000 -0.143
17 51.00 1200.02 251 613 1.000 10000.000 0.000 -0.143
18 54.00 1200.02 247 628 1.000 10000.000 0.000 -0.143
19 57.00 1200.02 235 610 1.000 10000.000 0.000 -0.143
20 60.00 1200.02 254 636 1.000 10000.000 0.000 -0.143
21 63.00 1200.02 231 610 1.000 10000.000 0.000 -0.143
22 66.00 1200.02 276 600 1.000 10000.000 0.000 -0.143
23 69.00 1200.02 253 618 1.000 10000.000 0.000 -0.143
24 72.00 1200.02 274 602 1.000 10000.000 0.000 -0.143
25 75.00 1200.02 258 572 1.000 10000.000 0.000 -0.143
26 78.00 1200.02 263 598 1.000 10000.000 0.000 -0.143
27 81.00 1200.02 261 588 1.000 10000.000 0.000 -0.143
28 84.00 1200.02 278 557 1.000 10000.000 0.000 -0.143
29 87.00 1200.02 277 564 1.000 10000.000 0.000 -0.143
30 90.00 1200.02 282 524 1.000 10000.000 0.000 -0.143
31 93.00 1200.02 265 532 1.000 10000.000 0.000 -0.143
32 96.00 1200.02 282 518 1.000 10000.000 0.000 -0.143
33 99.00 1200.02 275 514 1.000 10000.000 0.000 -0.143
34 102.00 1200.02 302 481 1.000 10000.000 0.000 -0.143
35 105.00 1200.02 272 483 1.000 10000.000 0.000 -0.143
36 108.00 1200.02 262 475 1.000 10000.000 0.000 -0.143
37 111.00 1200.02 278 435 1.000 10000.000 0.000 -0.143
38 114.00 1200.02 261 501 1.000 10000.000 0.000 -0.143
39 117.00 1200.02 233 483 1.000 10000.000 0.000 -0.143
40 120.00 1200.02 254 510 1.000 10000.000 0.000 -0.143
41 123.00 1200.02 266 504 1.000 10000.000 0.000 -0.143
42 126.00 1200.02 274 537 1.000 10000.000 0.000 -0.143
43 129.00 1200.02 239 523 1.000 10000.000 0.000 -0.143
44 132.00 1200.02 255 600 1.000 10000.000 0.000 -0.143
45 135.00 1200.02 246 605 1.000 10000.000 0.000 -0.143
46 138.00 1200.02 250 570 1.000 10000.000 0.000 -0.143
47 141.00 1200.02 214 604 1.000 10000.000 0.000 -0.143
48 144.00 1200.02 266 594 1.000 10000.000 0.000 -0.143
49 147.00 1200.02 256 651 1.000 10000.000 0.000 -0.143
50 150.00 1200.02 276 676 1.000 10000.000 0.000 -0.143
51 153.00 1200.02 247 667 1.000 10000.000 0.000 -0.143
52 156.00 1200.02 260 623 1.000 10000.000 0.000 -0.143
53 159.00 1200.02 240 575 1.000 10000.000 0.000 -0.143
54 162.00 1200.02 237 627 1.000 10000.000 0.000 -0.143
55 165.00 1200.02 256 655 1.000 10000.000 0.000 -0.143
56 168.00 1200.02 262 644 1.000 10000.000 0.000 -0.143
57 171.00 1200.02 235 541 1.000 10000.000 0.000 -0.143
58 174.00 1200.02 275 572 1.000 10000.000 0.000 -0.143
59 177.00 1200.02 266 577 1.000 10000.000 0.000 -0.143
60 180.00 1200.02 301 559 1.000 10000.000 0.000 -0.143
61 183.00 1200.02 277 550 1.000 10000.000 0.000 -0.143
62 186.00 1200.02 266 527 1.000 10000.000 0.000 -0.143
63 189.00 1200.02 293 492 1.000 10000.000 0.000 -0.143
64 192.00 1200.02 327 554 1.000 10000.000 0.000 -0.143
65 195.00 1200.02 282 502 1.000 10000.000 0.000 -0.143
66 198.00 1200.02 295 476 1.000 10000.000 0.000 -0.143
67 201.00 1200.02 291 468 1.000 10000.000 0.000 -0.143
68 204.00 1200.02 277 493 1.000 10000.000 0.000 -0.143
69 207.00 1200.02 262 461 1.000 10000.000 0.000 -0.143
70 210.00 1200.02 278 490 1.000 10000.000 0.000 -0.143
71 213.00 1200.02 257 500 1.000 10000.000 0.000 -0.143
72 216.00 1200.02 262 543 1.000 10000.000 0.000 -0.143
73 219.00 1200.02 245 497 1.000 10000.000 0.000 -0.143
74 222.00 1200.02 285 537 1.000 10000.000 0.000 -0.143
75 225.00 1200.02 245 524 1.000 10000.000 0.000 -0.143
76 228.00 1200.02 261 558 1.000 10000.000 0.000 -0.143
77 231.00 1200.02 256 583 1.000 10000.000 0.000 -0.143
78 234.00 1200.02 246 575 1.000 10000.000 0.000 -0.143
79 237.00 1200.02 241 563 1.000 10000.000 0.000 -0.143
80 240.00 1200.02 250 595 1.000 10000.000 0.000 -0.143
81 243.00 1200.02 274 608 1.000 10000.000 0.000 -0.143
82 246.00 1200.02 263 597 1.000 10000.000 0.000 -0.143
83 249.00 1200.02 273 605 1.000 10000.000 0.000 -0.143
84 252.00 1200.02 258 668 1.000 10000.000 0.000 -0.143
85 255.00 1200.02 257 621 1.000 10000.000 0.000 -0.143
86 258.00 1200.02 249 666 1.000 10000.000 0.000 -0.143
87 261.00 1200.02 288 624 1.000 10000.000 0.000 -0.143
88 264.00 1200.02 284 620 1.000 10000.000 0.000 -0.143
89 267.00 1200.02 290 622 1.000 10000.000 0.000 -0.143
90 270.00 1200.02 275 594 1.000 10000.000 0.000 -0.143
91 273.00 1200.02 256 603 1.000 10000.000 0.000 -0.143
92 276.00 1200.02 283 634 1.000 10000.000 0.000 -0.143
93 279.00 1200.02 278 569 1.000 10000.000 0.000 -0.143
94 282.00 1200.02 256 580 1.000 10000.000 0.000 -0.143
95 285.00 1200.02 238 527 1.000 10000.000 0.000 -0.143
96 288.00 1200.02 241 575 1.000 10000.000 0.000 -0.143
97 291.00 1200.02 258 542 1.000 10000.000 0.000 -0.143
98 294.00 1200.02 253 520 1.000 10000.000 0.000 -0.143
99 297.00 1200.02 249 467 1.000 10000.000 0.000 -0.143
100 300.00 1200.02 250 497 1.000 10000.000 0.000 -0.143
101 303.00 1200.02 277 493 1.000 10000.000 0.000 -0.143
102 306.00 1200.02 270 514 1.000 10000.000 0.000 -0.143
103 309.00 1200.02 286 505 1.000 10000.000 0.000 -0.143
104 312.00 1200.02 293 521 1.000 10000.000 0.000 -0.143
105 315.00 1200.02 279 475 1.000 10000.000 0.000 -0.143
106 318.00 1200.02 276 539 1.000 10000.000 0.000 -0.143
107 321.00 1200.02 275 501 1.000 10000.000 0.000 -0.143
108 324.00 1200.02 256 538 1.000 10000.000 0.000 -0.143
109 327.00 1200.02 295 563 1.000 10000.000 0.000 -0.143
110 330.00 1200.02 290 528 1.000 10000.000 0.000 -0.143
111 333.00 1200.02 313 627 1.000 10000.000 0.000 -0.143
112 336.00 1200.02 264 594 1.000 10000.000 0.000 -0.143
113 339.00 1200.02 266 555 1.000 10000.000 0.000 -0.143
114 342.00 1200.02 284 589 1.000 10000.000 0.000 -0.143
115 345.00 1200.02 270 608 1.000 10000.000 0.000 -0.143
116 348.00 1200.02 277 601 1.000 10000.000 0.000 -0.143
117 351.00 1200.02 295 591 1.000 10000.000 0.000 -0.143
118 354.00 1200.02 266 594 1.000 10000.000 0.000 -0.143
119 357.00 1200.02 255 629 1.000 10000.000 0.000 -0.143
120 360.00 1200.02 256 632 1.000 10000.000 0.000 -0.143
121 363.00 1200.02 241 622 1.000 10000.000 0.000 -0.143
122 366.00 1200.02 258 601 1.000 10000.000 0.000 -0.143
123 369.00 1200.02 226 596 1.000 10000.000 0.000 -0.143
124 372.00 1200.02 223 544 1.000 10000.000 0.000 -0.143
125 375.00 1200.02 276 598 1.000 10000.000 0.000 -0.143
126 378.00 1200.02 249 609 1.000 10000.000 0.000 -0.143
127 381.00 1200.02 235 548 1.000 10000.000 0.000 -0.143
128 384.00 1200.02 244 518 1.000 10000.000 0.000 -0.143
129 387.00 1200.02 268 546 1.000 10000.000 0.000 -0.143
130 390.00 1200.02 265 482 1.000 10000.000 0.000 -0.143
131 393.00 1200.02 215 498 1.000 10000.000 0.000 -0.143
132 396.00 1200.02 274 473 1.000 10000.000 0.000 -0.143
133 399.00 1200.02 261 505 1.000 10000.000 0.000 -0.143
134 402.00 1200.02 282 491 1.000 10000.000 0.000 -0.143
135 405.00 1200.02 268 446 1.000 10000.000 0.000 -0.143
136 408.00 1200.02 262 502 1.000 10000.000 0.000 -0.143
137 411.00 1200.02 261 517 1.000 10000.000 0.000 -0.143
138 414.00 1200.02 233 526 1.000 10000.000 0.000 -0.143
139 417.00 1200.02 292 534 1.000 10000.000 0.000 -0.143
140 420.00 1200.02 286 582 1.000 10000.000 0.000 -0.143
141 423.00 1200.02 255 582 1.000 10000.000 0.000 -0.143
