# BinNR microsec tot-time (s)  O-Beam AUX Ampl(V) f(Hz) phase(deg) chi(pos)
0 0.00 1200.01 137 247 3.400 10000.000 0.000 -0.022
1 3.00 1200.01 265 443 3.400 10000.000 0.000 -0.022
2 6.00 1200.01 300 432 3.400 10000.000 0.000 -0.022
3 9.00 1200.01 267 376 3.400 10000.000 0.000 -0.022
4 12.00 1200.01 259 334 3.400 10000.000 0.000 -0.022
5 15.00 1200.01 230 254 3.400 10000.000 0.000 -0.022
6 18.00 1200.01 215 247 3.400 10000.000 0.000 -0.022
7 21.00 1200.01 259 252 3.400 10000.000 0.000 -0.022
8 24.00 1200.01 225 298 3.400 10000.000 0.000 -0.022
9 27.00 1200.01 196 364 3.400 10000.000 0.000 -0.022
10 30.00 1200.01 205 406 3.400 10000.000 0.000 -0.022
11 33.00 1200.01 212 516 3.400 10000.000 0.000 -0.022
12 36.00 1200.01 170 572 3.400 10000.000 0.000 -0.022
13 39.00 1200.01 203 582 3.400 10000.000 0.000 -0.022
14 42.00 1200.01 198 695 3.400 10000.000 0.000 -0.022
15 45.00 1200.01 166 688 3.400 10000.000 0.000 -0.022
16 48.00 1200.01 175 718 3.400 10000.000 0.000 -0.022
17 51.00 1200.01 175 747 3.400 10000.000 0.000 -0.022
18 54.00 1200.01 168 724 3.400 10000.000 0.000 -0.022
19 57.00 1200.01 187 704 3.400 10000.000 0.000 -0.022
20 60.00 1200.01 243 729 3.400 10000.000 0.000 -0.022
21 63.00 1200.01 216 683 3.400 10000.000 0.000 -0.022
22 66.00 1200.01 219 641 3.400 10000.000 0.000 -0.022
23 69.00 1200.01 242 655 3.400 10000.000 0.000 -0.022
24 72.00 1200.01 262 636 3.400 10000.000 0.000 -0.022
25 75.00 1200.01 254 607 3.400 10000.000 0.000 -0.022
26 78.00 1200.01 245 593 3.400 10000.000 0.000 -0.022
27 81.00 1200.01 249 466 3.400 10000.000 0.000 -0.022
28 84.00 1200.01 268 428 3.400 10000.000 0.000 -0.022
29 87.00 1200.01 280 421 3.400 10000.000 0.000 -0.022
30 90.00 1200.01 319 400 3.400 10000.000 0.000 -0.022
31 93.00 1200.01 258 350 3.400 10000.000 0.000 -0.022
32 96.00 1200.01 302 316 3.400 10000.000 0.000 -0.022
33 99.00 1200.01 273 324 3.400 10000.000 0.000 -0.022
34 102.00 1200.01 274 300 3.400 10000.000 0.000 -0.022
35 105.00 1200.01 263 254 3.400 10000.000 0.000 -0.022
36 108.00 1200.01 300 281 3.400 10000.000 0.000 -0.022
37 111.00 1200.01 290 253 3.400 10000.000 0.000 -0.022
38 114.00 1200.01 263 283 3.400 10000.000 0.000 -0.022
39 117.00 1200.01 236 250 3.400 10000.000 0.000 -0.022
40 120.00 1200.01 247 319 3.400 10000.000 0.000 -0.022
41 123.00 1200.01 231 335 3.400 10000.000 0.000 -0.022
42 126.00 1200.01 217 381 3.400 10000.000 0.000 -0.022
43 129.00 1200.01 191 412 3.400 10000.000 0.000 -0.022
44 132.00 1200.01 197 490 3.400 10000.000 0.000 -0.022
45 135.00 1200.01 199 504 3.400 10000.000 0.000 -0.022
46 138.00 1200.01 168 565 3.400 10000.000 0.000 -0.022
47 141.00 1200.01 151 584 3.400 10000.000 0.000 -0.022
48 144.00 1200.01 184 643 3.400 10000.000 0.000 -0.022
49 147.00 1200.01 172 682 3.400 10000.000 0.000 -0.022
50 150.00 1200.01 176 684 3.400 10000.000 0.000 -0.022
51 153.00 1200.01 170 654 3.400 10000.000 0.000 -0.022
52 156.00 1200.01 211 703 3.400 10000.000 0.000 -0.022
53 159.00 1200.01 185 685 3.400 10000.000 0.000 -0.022
54 162.00 1200.01 189 674 3.400 10000.000 0.000 -0.022
55 165.00 1200.01 206 655 3.400 10000.000 0.000 -0.022
56 168.00 1200.01 229 652 3.400 10000.000 0.000 -0.022
57 171.00 1200.01 224 613 3.400 10000.000 0.000 -0.022
58 174.00 1200.01 254 592 3.400 10000.000 0.000 -0.022
59 177.00 1200.01 262 555 3.400 10000.000 0.000 -0.022
60 180.00 1200.01 268 556 3.400 10000.000 0.000 -0.022
61 183.00 1200.01 273 425 3.400 10000.000 0.000 -0.022
62 186.00 1200.01 277 397 3.400 10000.000 0.000 -0.022
63 189.00 1200.01 277 389 3.400 10000.000 0.000 -0.022
64 192.00 1200.01 314 356 3.400 10000.000 0.000 -0.022
65 195.00 1200.01 270 286 3.400 10000.000 0.000 -0.022
66 198.00 1200.01 299 291 3.400 10000.000 0.000 -0.022
67 201.00 1200.01 300 273 3.400 10000.000 0.000 -0.022
68 204.00 1200.01 271 300 3.400 10000.000 0.000 -0.022
69 207.00 1200.01 282 263 3.400 10000.000 0.000 -0.022
70 210.00 1200.01 250 269 3.400 10000.000 0.000 -0.022
71 213.00 1200.01 240 264 3.400 10000.000 0.000 -0.022
72 216.00 1200.01 251 282 3.400 10000.000 0.000 -0.022
73 219.00 1200.01 222 288 3.400 10000.000 0.000 -0.022
74 222.00 1200.01 233 303 3.400 10000.000 0.000 -0.022
75 225.00 1200.01 220 402 3.400 10000.000 0.000 -0.022
76 228.00 1200.01 206 399 3.400 10000.000 0.000 -0.022
77 231.00 1200.01 194 450 3.400 10000.000 0.000 -0.022
78 234.00 1200.01 195 518 3.400 10000.000 0.000 -0.022
79 237.00 1200.01 184 564 3.400 10000.000 0.000 -0.022
80 240.00 1200.01 206 568 3.400 10000.000 0.000 -0.022
81 243.00 1200.01 196 573 3.400 10000.000 0.000 -0.022
82 246.00 1200.01 217 612 3.400 10000.000 0.000 -0.022
83 249.00 1200.01 242 669 3.400 10000.000 0.000 -0.022
84 252.00 1200.01 224 704 3.400 10000.000 0.000 -0.022
85 255.00 1200.01 210 714 3.400 10000.000 0.000 -0.022
86 258.00 1200.01 238 716 3.400 10000.000 0.000 -0.022
87 261.00 1200.01 244 681 3.400 10000.000 0.000 -0.022
88 264.00 1200.01 252 704 3.400 10000.000 0.000 -0.022
89 267.00 1200.01 264 673 3.400 10000.000 0.000 -0.022
90 270.00 1200.01 236 624 3.400 10000.000 0.000 -0.022
91 273.00 1200.01 204 621 3.400 10000.000 0.000 -0.022
92 276.00 1200.01 195 577 3.400 10000.000 0.000 -0.022
93 279.00 1200.01 220 525 3.400 10000.000 0.000 -0.022
94 282.00 1200.01 206 445 3.400 10000.000 0.000 -0.022
95 285.00 1200.01 198 433 3.400 10000.000 0.000 -0.022
96 288.00 1200.01 198 379 3.400 10000.000 0.000 -0.022
97 291.00 1200.01 209 373 3.400 10000.000 0.000 -0.022
98 294.00 1200.01 184 332 3.400 10000.000 0.000 -0.022
99 297.00 1200.01 207 306 3.400 10000.000 0.000 -0.022
100 300.00 1200.01 216 311 3.400 10000.000 0.000 -0.022
101 303.00 1200.01 227 258 3.400 10000.000 0.000 -0.022
102 306.00 1200.01 249 251 3.400 10000.000 0.000 -0.022
103 309.00 1200.01 224 252 3.400 10000.000 0.000 -0.022
104 312.00 1200.01 269 302 3.400 10000.000 0.000 -0.022
105 315.00 1200.01 266 263 3.400 10000.000 0.000 -0.022
106 318.00 1200.01 298 296 3.400 10000.000 0.000 -0.022
107 321.00 1200.01 273 327 3.400 10000.000 0.000 -0.022
108 324.00 1200.01 300 368 3.400 10000.000 0.000 -0.022
109 327.00 1200.01 288 414 3.400 10000.000 0.000 -0.022
110 330.00 1200.01 299 453 3.400 10000.000 0.000 -0.022
111 333.00 1200.01 275 435 3.400 10000.000 0.000 -0.022
112 336.00 1200.01 300 510 3.400 10000.000 0.000 -0.022
113 339.00 1200.01 287 535 3.400 10000.000 0.000 -0.022
114 342.00 1200.01 290 598 3.400 10000.000 0.000 -0.022
115 345.00 1200.01 276 605 3.400 10000.000 0.000 -0.022
116 348.00 1200.01 238 666 3.400 10000.000 0.000 -0.022
117 351.00 1200.01 244 698 3.400 10000.000 0.000 -0.022
118 354.00 1200.01 225 718 3.400 10000.000 0.000 -0.022
119 357.00 1200.01 218 698 3.400 10000.000 0.000 -0.022
120 360.00 1200.01 212 678 3.400 10000.000 0.000 -0.022
121 363.00 1200.01 204 620 3.400 10000.000 0.000 -0.022
122 366.00 1200.01 202 730 3.400 10000.000 0.000 -0.022
123 369.00 1200.01 175 612 3.400 10000.000 0.000 -0.022
124 372.00 1200.01 163 642 3.400 10000.000 0.000 -0.022
125 375.00 1200.01 155 584 3.400 10000.000 0.000 -0.022
126 378.00 1200.01 155 538 3.400 10000.000 0.000 -0.022
127 381.00 1200.01 157 464 3.400 10000.000 0.000 -0.022
128 384.00 1200.01 161 436 3.400 10000.000 0.000 -0.022
129 387.00 1200.01 185 452 3.400 10000.000 0.000 -0.022
130 390.00 1200.01 202 370 3.400 10000.000 0.000 -0.022
131 393.00 1200.01 205 347 3.400 10000.000 0.000 -0.022
132 396.00 1200.01 202 315 3.400 10000.000 0.000 -0.022
133 399.00 1200.01 239 260 3.400 10000.000 0.000 -0.022
134 402.00 1200.01 244 286 3.400 10000.000 0.000 -0.022
135 405.00 1200.01 256 272 3.400 10000.000 0.000 -0.022
136 408.00 1200.01 282 308 3.400 10000.000 0.000 -0.022
137 411.00 1200.01 278 384 3.400 10000.000 0.000 -0.022
138 414.00 1200.01 274 397 3.400 10000.000 0.000 -0.022
139 417.00 1200.01 276 518 3.400 10000.000 0.000 -0.022
140 420.00 1200.01 270 567 3.400 10000.000 0.000 -0.022
141 423.00 1200.01 310 556 3.400 10000.000 0.000 -0.022
