# BinNR microsec tot-time (s)  O-Beam AUX Ampl_1(V) f_1(Hz) phase_1(deg) Ampl_2(V) f_2(Hz) phase_2(deg) chi(pos)
0 0.00 1500.02 511 1771 0.740 10000.000 0.000 0.000 0.000 0.000 1.505
1 3.00 1500.02 1052 3553 0.740 10000.000 0.000 0.000 0.000 0.000 1.505
2 6.00 1500.02 1035 3612 0.740 10000.000 0.000 0.000 0.000 0.000 1.505
3 9.00 1500.02 1033 3497 0.740 10000.000 0.000 0.000 0.000 0.000 1.505
4 12.00 1500.02 1034 3583 0.740 10000.000 0.000 0.000 0.000 0.000 1.505
5 15.00 1500.02 1023 3632 0.740 10000.000 0.000 0.000 0.000 0.000 1.505
6 18.00 1500.02 1088 3551 0.740 10000.000 0.000 0.000 0.000 0.000 1.505
7 21.00 1500.02 1089 3586 0.740 10000.000 0.000 0.000 0.000 0.000 1.505
8 24.00 1500.02 1036 3625 0.740 10000.000 0.000 0.000 0.000 0.000 1.505
9 27.00 1500.02 1040 3676 0.740 10000.000 0.000 0.000 0.000 0.000 1.505
10 30.00 1500.02 1045 3593 0.740 10000.000 0.000 0.000 0.000 0.000 1.505
11 33.00 1500.02 1084 3713 0.740 10000.000 0.000 0.000 0.000 0.000 1.505
12 36.00 1500.02 1092 3622 0.740 10000.000 0.000 0.000 0.000 0.000 1.505
13 39.00 1500.02 1100 3615 0.740 10000.000 0.000 0.000 0.000 0.000 1.505
14 42.00 1500.02 1013 3698 0.740 10000.000 0.000 0.000 0.000 0.000 1.505
15 45.00 1500.02 1035 3646 0.740 10000.000 0.000 0.000 0.000 0.000 1.505
16 48.00 1500.02 1102 3510 0.740 10000.000 0.000 0.000 0.000 0.000 1.505
17 51.00 1500.02 1054 3543 0.740 10000.000 0.000 0.000 0.000 0.000 1.505
18 54.00 1500.02 1086 3607 0.740 10000.000 0.000 0.000 0.000 0.000 1.505
19 57.00 1500.02 1063 3438 0.740 10000.000 0.000 0.000 0.000 0.000 1.505
20 60.00 1500.02 1097 3595 0.740 10000.000 0.000 0.000 0.000 0.000 1.505
21 63.00 1500.02 1063 3472 0.740 10000.000 0.000 0.000 0.000 0.000 1.505
22 66.00 1500.02 1042 3497 0.740 10000.000 0.000 0.000 0.000 0.000 1.505
23 69.00 1500.02 1031 3469 0.740 10000.000 0.000 0.000 0.000 0.000 1.505
24 72.00 1500.02 1079 3628 0.740 10000.000 0.000 0.000 0.000 0.000 1.505
25 75.00 1500.02 1076 3672 0.740 10000.000 0.000 0.000 0.000 0.000 1.505
26 78.00 1500.02 1057 3559 0.740 10000.000 0.000 0.000 0.000 0.000 1.505
27 81.00 1500.02 1086 3448 0.740 10000.000 0.000 0.000 0.000 0.000 1.505
28 84.00 1500.02 1094 3609 0.740 10000.000 0.000 0.000 0.000 0.000 1.505
29 87.00 1500.02 989 3577 0.740 10000.000 0.000 0.000 0.000 0.000 1.505
30 90.00 1500.02 1081 3631 0.740 10000.000 0.000 0.000 0.000 0.000 1.505
31 93.00 1500.02 1042 3496 0.740 10000.000 0.000 0.000 0.000 0.000 1.505
32 96.00 1500.02 1083 3571 0.740 10000.000 0.000 0.000 0.000 0.000 1.505
33 99.00 1500.02 1056 3531 0.740 10000.000 0.000 0.000 0.000 0.000 1.505
34 102.00 1500.02 1075 3588 0.740 10000.000 0.000 0.000 0.000 0.000 1.505
35 105.00 1500.02 1022 3586 0.740 10000.000 0.000 0.000 0.000 0.000 1.505
36 108.00 1500.02 1124 3557 0.740 10000.000 0.000 0.000 0.000 0.000 1.505
37 111.00 1500.02 1047 3493 0.740 10000.000 0.000 0.000 0.000 0.000 1.505
38 114.00 1500.02 1061 3625 0.740 10000.000 0.000 0.000 0.000 0.000 1.505
39 117.00 1500.02 1024 3571 0.740 10000.000 0.000 0.000 0.000 0.000 1.505
40 120.00 1500.02 1111 3586 0.740 10000.000 0.000 0.000 0.000 0.000 1.505
41 123.00 1500.02 1032 3646 0.740 10000.000 0.000 0.000 0.000 0.000 1.505
42 126.00 1500.02 980 3649 0.740 10000.000 0.000 0.000 0.000 0.000 1.505
43 129.00 1500.02 1078 3517 0.740 10000.000 0.000 0.000 0.000 0.000 1.505
44 132.00 1500.02 1113 3480 0.740 10000.000 0.000 0.000 0.000 0.000 1.505
45 135.00 1500.02 987 3464 0.740 10000.000 0.000 0.000 0.000 0.000 1.505
46 138.00 1500.02 1073 3619 0.740 10000.000 0.000 0.000 0.000 0.000 1.505
47 141.00 1500.02 1063 3398 0.740 10000.000 0.000 0.000 0.000 0.000 1.505
48 144.00 1500.02 1067 3489 0.740 10000.000 0.000 0.000 0.000 0.000 1.505
49 147.00 1500.02 1052 3455 0.740 10000.000 0.000 0.000 0.000 0.000 1.505
50 150.00 1500.02 1032 3654 0.740 10000.000 0.000 0.000 0.000 0.000 1.505
51 153.00 1500.02 1074 3469 0.740 10000.000 0.000 0.000 0.000 0.000 1.505
52 156.00 1500.02 1075 3522 0.740 10000.000 0.000 0.000 0.000 0.000 1.505
53 159.00 1500.02 1065 3483 0.740 10000.000 0.000 0.000 0.000 0.000 1.505
54 162.00 1500.02 1113 3641 0.740 10000.000 0.000 0.000 0.000 0.000 1.505
55 165.00 1500.02 1047 3516 0.740 10000.000 0.000 0.000 0.000 0.000 1.505
56 168.00 1500.02 1046 3461 0.740 10000.000 0.000 0.000 0.000 0.000 1.505
57 171.00 1500.02 1017 3578 0.740 10000.000 0.000 0.000 0.000 0.000 1.505
58 174.00 1500.02 1014 3530 0.740 10000.000 0.000 0.000 0.000 0.000 1.505
59 177.00 1500.02 1064 3438 0.740 10000.000 0.000 0.000 0.000 0.000 1.505
60 180.00 1500.02 1035 3521 0.740 10000.000 0.000 0.000 0.000 0.000 1.505
61 183.00 1500.02 1041 3491 0.740 10000.000 0.000 0.000 0.000 0.000 1.505
62 186.00 1500.02 996 3657 0.740 10000.000 0.000 0.000 0.000 0.000 1.505
63 189.00 1500.02 1039 3542 0.740 10000.000 0.000 0.000 0.000 0.000 1.505
64 192.00 1500.02 1097 3538 0.740 10000.000 0.000 0.000 0.000 0.000 1.505
65 195.00 1500.02 1084 3423 0.740 10000.000 0.000 0.000 0.000 0.000 1.505
66 198.00 1500.02 1081 3520 0.740 10000.000 0.000 0.000 0.000 0.000 1.505
67 201.00 1500.02 1072 3512 0.740 10000.000 0.000 0.000 0.000 0.000 1.505
68 204.00 1500.02 1097 3655 0.740 10000.000 0.000 0.000 0.000 0.000 1.505
69 207.00 1500.02 1082 3414 0.740 10000.000 0.000 0.000 0.000 0.000 1.505
70 210.00 1500.02 1104 3714 0.740 10000.000 0.000 0.000 0.000 0.000 1.505
71 213.00 1500.02 1084 3503 0.740 10000.000 0.000 0.000 0.000 0.000 1.505
72 216.00 1500.02 1091 3498 0.740 10000.000 0.000 0.000 0.000 0.000 1.505
73 219.00 1500.02 1044 3569 0.740 10000.000 0.000 0.000 0.000 0.000 1.505
74 222.00 1500.02 1040 3597 0.740 10000.000 0.000 0.000 0.000 0.000 1.505
75 225.00 1500.02 1032 3541 0.740 10000.000 0.000 0.000 0.000 0.000 1.505
76 228.00 1500.02 1051 3629 0.740 10000.000 0.000 0.000 0.000 0.000 1.505
77 231.00 1500.02 1053 3524 0.740 10000.000 0.000 0.000 0.000 0.000 1.505
78 234.00 1500.02 1062 3601 0.740 10000.000 0.000 0.000 0.000 0.000 1.505
79 237.00 1500.02 1013 3454 0.740 10000.000 0.000 0.000 0.000 0.000 1.505
80 240.00 1500.02 1034 3592 0.740 10000.000 0.000 0.000 0.000 0.000 1.505
81 243.00 1500.02 969 3423 0.740 10000.000 0.000 0.000 0.000 0.000 1.505
82 246.00 1500.02 1077 3453 0.740 10000.000 0.000 0.000 0.000 0.000 1.505
83 249.00 1500.02 1051 3462 0.740 10000.000 0.000 0.000 0.000 0.000 1.505
84 252.00 1500.02 1031 3565 0.740 10000.000 0.000 0.000 0.000 0.000 1.505
85 255.00 1500.02 1023 3479 0.740 10000.000 0.000 0.000 0.000 0.000 1.505
86 258.00 1500.02 1070 3521 0.740 10000.000 0.000 0.000 0.000 0.000 1.505
87 261.00 1500.02 1108 3578 0.740 10000.000 0.000 0.000 0.000 0.000 1.505
88 264.00 1500.02 1033 3512 0.740 10000.000 0.000 0.000 0.000 0.000 1.505
89 267.00 1500.02 1086 3491 0.740 10000.000 0.000 0.000 0.000 0.000 1.505
90 270.00 1500.02 1057 3647 0.740 10000.000 0.000 0.000 0.000 0.000 1.505
91 273.00 1500.02 1031 3567 0.740 10000.000 0.000 0.000 0.000 0.000 1.505
92 276.00 1500.02 1113 3578 0.740 10000.000 0.000 0.000 0.000 0.000 1.505
93 279.00 1500.02 1083 3512 0.740 10000.000 0.000 0.000 0.000 0.000 1.505
94 282.00 1500.02 1080 3718 0.740 10000.000 0.000 0.000 0.000 0.000 1.505
95 285.00 1500.02 1054 3549 0.740 10000.000 0.000 0.000 0.000 0.000 1.505
96 288.00 1500.02 1034 3456 0.740 10000.000 0.000 0.000 0.000 0.000 1.505
97 291.00 1500.02 1037 3461 0.740 10000.000 0.000 0.000 0.000 0.000 1.505
98 294.00 1500.02 1094 3611 0.740 10000.000 0.000 0.000 0.000 0.000 1.505
99 297.00 1500.02 1040 3541 0.740 10000.000 0.000 0.000 0.000 0.000 1.505
100 300.00 1500.02 1096 3615 0.740 10000.000 0.000 0.000 0.000 0.000 1.505
101 303.00 1500.02 1103 3503 0.740 10000.000 0.000 0.000 0.000 0.000 1.505
102 306.00 1500.02 1036 3571 0.740 10000.000 0.000 0.000 0.000 0.000 1.505
103 309.00 1500.02 1018 3603 0.740 10000.000 0.000 0.000 0.000 0.000 1.505
104 312.00 1500.02 1114 3451 0.740 10000.000 0.000 0.000 0.000 0.000 1.505
105 315.00 1500.02 996 3562 0.740 10000.000 0.000 0.000 0.000 0.000 1.505
106 318.00 1500.02 1057 3649 0.740 10000.000 0.000 0.000 0.000 0.000 1.505
107 321.00 1500.02 1058 3395 0.740 10000.000 0.000 0.000 0.000 0.000 1.505
108 324.00 1500.02 1097 3506 0.740 10000.000 0.000 0.000 0.000 0.000 1.505
109 327.00 1500.02 1028 3646 0.740 10000.000 0.000 0.000 0.000 0.000 1.505
110 330.00 1500.02 1100 3602 0.740 10000.000 0.000 0.000 0.000 0.000 1.505
111 333.00 1500.02 1071 3486 0.740 10000.000 0.000 0.000 0.000 0.000 1.505
112 336.00 1500.02 1075 3611 0.740 10000.000 0.000 0.000 0.000 0.000 1.505
113 339.00 1500.02 1104 3403 0.740 10000.000 0.000 0.000 0.000 0.000 1.505
114 342.00 1500.02 1079 3554 0.740 10000.000 0.000 0.000 0.000 0.000 1.505
115 345.00 1500.02 1070 3370 0.740 10000.000 0.000 0.000 0.000 0.000 1.505
116 348.00 1500.02 1095 3505 0.740 10000.000 0.000 0.000 0.000 0.000 1.505
117 351.00 1500.02 1001 3426 0.740 10000.000 0.000 0.000 0.000 0.000 1.505
118 354.00 1500.02 1046 3481 0.740 10000.000 0.000 0.000 0.000 0.000 1.505
119 357.00 1500.02 1026 3429 0.740 10000.000 0.000 0.000 0.000 0.000 1.505
120 360.00 1500.02 1078 3652 0.740 10000.000 0.000 0.000 0.000 0.000 1.505
121 363.00 1500.02 1002 3484 0.740 10000.000 0.000 0.000 0.000 0.000 1.505
122 366.00 1500.02 1103 3578 0.740 10000.000 0.000 0.000 0.000 0.000 1.505
123 369.00 1500.02 982 3521 0.740 10000.000 0.000 0.000 0.000 0.000 1.505
124 372.00 1500.02 1053 3684 0.740 10000.000 0.000 0.000 0.000 0.000 1.505
125 375.00 1500.02 1045 3592 0.740 10000.000 0.000 0.000 0.000 0.000 1.505
126 378.00 1500.02 1053 3652 0.740 10000.000 0.000 0.000 0.000 0.000 1.505
127 381.00 1500.02 1023 3515 0.740 10000.000 0.000 0.000 0.000 0.000 1.505
128 384.00 1500.02 1111 3463 0.740 10000.000 0.000 0.000 0.000 0.000 1.505
129 387.00 1500.02 1006 3551 0.740 10000.000 0.000 0.000 0.000 0.000 1.505
130 390.00 1500.02 1066 3655 0.740 10000.000 0.000 0.000 0.000 0.000 1.505
131 393.00 1500.02 1036 3449 0.740 10000.000 0.000 0.000 0.000 0.000 1.505
132 396.00 1500.02 1033 3604 0.740 10000.000 0.000 0.000 0.000 0.000 1.505
133 399.00 1500.02 1037 3513 0.740 10000.000 0.000 0.000 0.000 0.000 1.505
134 402.00 1500.02 1062 3549 0.740 10000.000 0.000 0.000 0.000 0.000 1.505
135 405.00 1500.02 1026 3459 0.740 10000.000 0.000 0.000 0.000 0.000 1.505
136 408.00 1500.02 1079 3441 0.740 10000.000 0.000 0.000 0.000 0.000 1.505
137 411.00 1500.02 1021 3499 0.740 10000.000 0.000 0.000 0.000 0.000 1.505
138 414.00 1500.02 1055 3568 0.740 10000.000 0.000 0.000 0.000 0.000 1.505
139 417.00 1500.02 1038 3538 0.740 10000.000 0.000 0.000 0.000 0.000 1.505
140 420.00 1500.02 1078 3646 0.740 10000.000 0.000 0.000 0.000 0.000 1.505
141 423.00 1500.02 994 3560 0.740 10000.000 0.000 0.000 0.000 0.000 1.505
142 426.00 1500.02 1017 3618 0.740 10000.000 0.000 0.000 0.000 0.000 1.505
143 429.00 1500.02 1103 3552 0.740 10000.000 0.000 0.000 0.000 0.000 1.505
144 432.00 1500.02 1074 3636 0.740 10000.000 0.000 0.000 0.000 0.000 1.505
