# BinNR microsec tot-time (s)  O-Beam AUX Ampl_1(V) f_1(Hz) phase_1(deg) Ampl_2(V) f_2(Hz) phase_2(deg) chi(pos)
0 0.00 1500.01 433 1385 0.740 10000.000 0.000 0.000 0.000 0.000 1.318
1 3.00 1500.01 819 2848 0.740 10000.000 0.000 0.000 0.000 0.000 1.318
2 6.00 1500.01 834 2955 0.740 10000.000 0.000 0.000 0.000 0.000 1.318
3 9.00 1500.01 836 2883 0.740 10000.000 0.000 0.000 0.000 0.000 1.318
4 12.00 1500.01 841 2858 0.740 10000.000 0.000 0.000 0.000 0.000 1.318
5 15.00 1500.01 848 2753 0.740 10000.000 0.000 0.000 0.000 0.000 1.318
6 18.00 1500.01 847 2779 0.740 10000.000 0.000 0.000 0.000 0.000 1.318
7 21.00 1500.01 873 2844 0.740 10000.000 0.000 0.000 0.000 0.000 1.318
8 24.00 1500.01 841 2946 0.740 10000.000 0.000 0.000 0.000 0.000 1.318
9 27.00 1500.01 832 2881 0.740 10000.000 0.000 0.000 0.000 0.000 1.318
10 30.00 1500.01 858 3043 0.740 10000.000 0.000 0.000 0.000 0.000 1.318
11 33.00 1500.01 852 2896 0.740 10000.000 0.000 0.000 0.000 0.000 1.318
12 36.00 1500.01 895 2945 0.740 10000.000 0.000 0.000 0.000 0.000 1.318
13 39.00 1500.01 858 2790 0.740 10000.000 0.000 0.000 0.000 0.000 1.318
14 42.00 1500.01 845 3024 0.740 10000.000 0.000 0.000 0.000 0.000 1.318
15 45.00 1500.01 857 2862 0.740 10000.000 0.000 0.000 0.000 0.000 1.318
16 48.00 1500.01 870 2925 0.740 10000.000 0.000 0.000 0.000 0.000 1.318
17 51.00 1500.01 834 2833 0.740 10000.000 0.000 0.000 0.000 0.000 1.318
18 54.00 1500.01 902 2998 0.740 10000.000 0.000 0.000 0.000 0.000 1.318
19 57.00 1500.01 856 2807 0.740 10000.000 0.000 0.000 0.000 0.000 1.318
20 60.00 1500.01 897 2951 0.740 10000.000 0.000 0.000 0.000 0.000 1.318
21 63.00 1500.01 804 2895 0.740 10000.000 0.000 0.000 0.000 0.000 1.318
22 66.00 1500.01 866 2773 0.740 10000.000 0.000 0.000 0.000 0.000 1.318
23 69.00 1500.01 812 2802 0.740 10000.000 0.000 0.000 0.000 0.000 1.318
24 72.00 1500.01 862 2804 0.740 10000.000 0.000 0.000 0.000 0.000 1.318
25 75.00 1500.01 836 2887 0.740 10000.000 0.000 0.000 0.000 0.000 1.318
26 78.00 1500.01 926 3041 0.740 10000.000 0.000 0.000 0.000 0.000 1.318
27 81.00 1500.01 789 2791 0.740 10000.000 0.000 0.000 0.000 0.000 1.318
28 84.00 1500.01 853 2930 0.740 10000.000 0.000 0.000 0.000 0.000 1.318
29 87.00 1500.01 893 2878 0.740 10000.000 0.000 0.000 0.000 0.000 1.318
30 90.00 1500.01 810 2882 0.740 10000.000 0.000 0.000 0.000 0.000 1.318
31 93.00 1500.01 878 2737 0.740 10000.000 0.000 0.000 0.000 0.000 1.318
32 96.00 1500.01 845 2808 0.740 10000.000 0.000 0.000 0.000 0.000 1.318
33 99.00 1500.01 828 2923 0.740 10000.000 0.000 0.000 0.000 0.000 1.318
34 102.00 1500.01 856 2918 0.740 10000.000 0.000 0.000 0.000 0.000 1.318
35 105.00 1500.01 851 2795 0.740 10000.000 0.000 0.000 0.000 0.000 1.318
36 108.00 1500.01 926 2959 0.740 10000.000 0.000 0.000 0.000 0.000 1.318
37 111.00 1500.01 865 2848 0.740 10000.000 0.000 0.000 0.000 0.000 1.318
38 114.00 1500.01 902 2955 0.740 10000.000 0.000 0.000 0.000 0.000 1.318
39 117.00 1500.01 835 2836 0.740 10000.000 0.000 0.000 0.000 0.000 1.318
40 120.00 1500.01 849 2832 0.740 10000.000 0.000 0.000 0.000 0.000 1.318
41 123.00 1500.01 829 2898 0.740 10000.000 0.000 0.000 0.000 0.000 1.318
42 126.00 1500.01 858 2874 0.740 10000.000 0.000 0.000 0.000 0.000 1.318
43 129.00 1500.01 911 2824 0.740 10000.000 0.000 0.000 0.000 0.000 1.318
44 132.00 1500.01 869 2891 0.740 10000.000 0.000 0.000 0.000 0.000 1.318
45 135.00 1500.01 839 2821 0.740 10000.000 0.000 0.000 0.000 0.000 1.318
46 138.00 1500.01 911 2946 0.740 10000.000 0.000 0.000 0.000 0.000 1.318
47 141.00 1500.01 816 2863 0.740 10000.000 0.000 0.000 0.000 0.000 1.318
48 144.00 1500.01 835 2873 0.740 10000.000 0.000 0.000 0.000 0.000 1.318
49 147.00 1500.01 835 2768 0.740 10000.000 0.000 0.000 0.000 0.000 1.318
50 150.00 1500.01 840 2882 0.740 10000.000 0.000 0.000 0.000 0.000 1.318
51 153.00 1500.01 827 2859 0.740 10000.000 0.000 0.000 0.000 0.000 1.318
52 156.00 1500.01 872 2854 0.740 10000.000 0.000 0.000 0.000 0.000 1.318
53 159.00 1500.01 822 2814 0.740 10000.000 0.000 0.000 0.000 0.000 1.318
54 162.00 1500.01 844 2901 0.740 10000.000 0.000 0.000 0.000 0.000 1.318
55 165.00 1500.01 852 2860 0.740 10000.000 0.000 0.000 0.000 0.000 1.318
56 168.00 1500.01 825 2858 0.740 10000.000 0.000 0.000 0.000 0.000 1.318
57 171.00 1500.01 866 2909 0.740 10000.000 0.000 0.000 0.000 0.000 1.318
58 174.00 1500.01 831 2949 0.740 10000.000 0.000 0.000 0.000 0.000 1.318
59 177.00 1500.01 865 2781 0.740 10000.000 0.000 0.000 0.000 0.000 1.318
60 180.00 1500.01 827 2899 0.740 10000.000 0.000 0.000 0.000 0.000 1.318
61 183.00 1500.01 852 2854 0.740 10000.000 0.000 0.000 0.000 0.000 1.318
62 186.00 1500.01 895 2855 0.740 10000.000 0.000 0.000 0.000 0.000 1.318
63 189.00 1500.01 784 2952 0.740 10000.000 0.000 0.000 0.000 0.000 1.318
64 192.00 1500.01 822 2877 0.740 10000.000 0.000 0.000 0.000 0.000 1.318
65 195.00 1500.01 844 2806 0.740 10000.000 0.000 0.000 0.000 0.000 1.318
66 198.00 1500.01 856 2951 0.740 10000.000 0.000 0.000 0.000 0.000 1.318
67 201.00 1500.01 865 2820 0.740 10000.000 0.000 0.000 0.000 0.000 1.318
68 204.00 1500.01 881 2819 0.740 10000.000 0.000 0.000 0.000 0.000 1.318
69 207.00 1500.01 885 2736 0.740 10000.000 0.000 0.000 0.000 0.000 1.318
70 210.00 1500.01 875 2910 0.740 10000.000 0.000 0.000 0.000 0.000 1.318
71 213.00 1500.01 802 2950 0.740 10000.000 0.000 0.000 0.000 0.000 1.318
72 216.00 1500.01 895 2864 0.740 10000.000 0.000 0.000 0.000 0.000 1.318
73 219.00 1500.01 888 2764 0.740 10000.000 0.000 0.000 0.000 0.000 1.318
74 222.00 1500.01 860 2903 0.740 10000.000 0.000 0.000 0.000 0.000 1.318
75 225.00 1500.01 854 2848 0.740 10000.000 0.000 0.000 0.000 0.000 1.318
76 228.00 1500.01 830 2867 0.740 10000.000 0.000 0.000 0.000 0.000 1.318
77 231.00 1500.01 857 2853 0.740 10000.000 0.000 0.000 0.000 0.000 1.318
78 234.00 1500.01 854 2846 0.740 10000.000 0.000 0.000 0.000 0.000 1.318
79 237.00 1500.01 842 2652 0.740 10000.000 0.000 0.000 0.000 0.000 1.318
80 240.00 1500.01 873 2925 0.740 10000.000 0.000 0.000 0.000 0.000 1.318
81 243.00 1500.01 848 2769 0.740 10000.000 0.000 0.000 0.000 0.000 1.318
82 246.00 1500.01 835 2764 0.740 10000.000 0.000 0.000 0.000 0.000 1.318
83 249.00 1500.01 849 2806 0.740 10000.000 0.000 0.000 0.000 0.000 1.318
84 252.00 1500.01 879 2874 0.740 10000.000 0.000 0.000 0.000 0.000 1.318
85 255.00 1500.01 867 2827 0.740 10000.000 0.000 0.000 0.000 0.000 1.318
86 258.00 1500.01 824 2924 0.740 10000.000 0.000 0.000 0.000 0.000 1.318
87 261.00 1500.01 870 2818 0.740 10000.000 0.000 0.000 0.000 0.000 1.318
88 264.00 1500.01 861 2868 0.740 10000.000 0.000 0.000 0.000 0.000 1.318
89 267.00 1500.01 831 2846 0.740 10000.000 0.000 0.000 0.000 0.000 1.318
90 270.00 1500.01 883 2886 0.740 10000.000 0.000 0.000 0.000 0.000 1.318
91 273.00 1500.01 888 2772 0.740 10000.000 0.000 0.000 0.000 0.000 1.318
92 276.00 1500.01 864 2893 0.740 10000.000 0.000 0.000 0.000 0.000 1.318
93 279.00 1500.01 905 2841 0.740 10000.000 0.000 0.000 0.000 0.000 1.318
94 282.00 1500.01 902 2828 0.740 10000.000 0.000 0.000 0.000 0.000 1.318
95 285.00 1500.01 859 2776 0.740 10000.000 0.000 0.000 0.000 0.000 1.318
96 288.00 1500.01 913 2903 0.740 10000.000 0.000 0.000 0.000 0.000 1.318
97 291.00 1500.01 842 2858 0.740 10000.000 0.000 0.000 0.000 0.000 1.318
98 294.00 1500.01 877 2904 0.740 10000.000 0.000 0.000 0.000 0.000 1.318
99 297.00 1500.01 890 2907 0.740 10000.000 0.000 0.000 0.000 0.000 1.318
100 300.00 1500.01 811 2942 0.740 10000.000 0.000 0.000 0.000 0.000 1.318
101 303.00 1500.01 851 2764 0.740 10000.000 0.000 0.000 0.000 0.000 1.318
102 306.00 1500.01 888 2917 0.740 10000.000 0.000 0.000 0.000 0.000 1.318
103 309.00 1500.01 849 2813 0.740 10000.000 0.000 0.000 0.000 0.000 1.318
104 312.00 1500.01 874 2899 0.740 10000.000 0.000 0.000 0.000 0.000 1.318
105 315.00 1500.01 904 2822 0.740 10000.000 0.000 0.000 0.000 0.000 1.318
106 318.00 1500.01 848 2805 0.740 10000.000 0.000 0.000 0.000 0.000 1.318
107 321.00 1500.01 805 2968 0.740 10000.000 0.000 0.000 0.000 0.000 1.318
108 324.00 1500.01 878 2889 0.740 10000.000 0.000 0.000 0.000 0.000 1.318
109 327.00 1500.01 875 2870 0.740 10000.000 0.000 0.000 0.000 0.000 1.318
110 330.00 1500.01 835 2913 0.740 10000.000 0.000 0.000 0.000 0.000 1.318
111 333.00 1500.01 794 2824 0.740 10000.000 0.000 0.000 0.000 0.000 1.318
112 336.00 1500.01 856 2853 0.740 10000.000 0.000 0.000 0.000 0.000 1.318
113 339.00 1500.01 793 2885 0.740 10000.000 0.000 0.000 0.000 0.000 1.318
114 342.00 1500.01 923 2911 0.740 10000.000 0.000 0.000 0.000 0.000 1.318
115 345.00 1500.01 844 2769 0.740 10000.000 0.000 0.000 0.000 0.000 1.318
116 348.00 1500.01 877 2902 0.740 10000.000 0.000 0.000 0.000 0.000 1.318
117 351.00 1500.01 868 2802 0.740 10000.000 0.000 0.000 0.000 0.000 1.318
118 354.00 1500.01 851 2897 0.740 10000.000 0.000 0.000 0.000 0.000 1.318
119 357.00 1500.01 874 2787 0.740 10000.000 0.000 0.000 0.000 0.000 1.318
120 360.00 1500.01 877 2878 0.740 10000.000 0.000 0.000 0.000 0.000 1.318
121 363.00 1500.01 866 2874 0.740 10000.000 0.000 0.000 0.000 0.000 1.318
122 366.00 1500.01 864 3012 0.740 10000.000 0.000 0.000 0.000 0.000 1.318
123 369.00 1500.01 848 2903 0.740 10000.000 0.000 0.000 0.000 0.000 1.318
124 372.00 1500.01 889 2833 0.740 10000.000 0.000 0.000 0.000 0.000 1.318
125 375.00 1500.01 850 2856 0.740 10000.000 0.000 0.000 0.000 0.000 1.318
126 378.00 1500.01 867 2917 0.740 10000.000 0.000 0.000 0.000 0.000 1.318
127 381.00 1500.01 822 2849 0.740 10000.000 0.000 0.000 0.000 0.000 1.318
128 384.00 1500.01 895 2867 0.740 10000.000 0.000 0.000 0.000 0.000 1.318
129 387.00 1500.01 854 2912 0.740 10000.000 0.000 0.000 0.000 0.000 1.318
130 390.00 1500.01 902 2896 0.740 10000.000 0.000 0.000 0.000 0.000 1.318
131 393.00 1500.01 832 2836 0.740 10000.000 0.000 0.000 0.000 0.000 1.318
132 396.00 1500.01 840 2889 0.740 10000.000 0.000 0.000 0.000 0.000 1.318
133 399.00 1500.01 879 2933 0.740 10000.000 0.000 0.000 0.000 0.000 1.318
134 402.00 1500.01 881 2907 0.740 10000.000 0.000 0.000 0.000 0.000 1.318
135 405.00 1500.01 900 2932 0.740 10000.000 0.000 0.000 0.000 0.000 1.318
136 408.00 1500.01 844 2836 0.740 10000.000 0.000 0.000 0.000 0.000 1.318
137 411.00 1500.01 855 2862 0.740 10000.000 0.000 0.000 0.000 0.000 1.318
138 414.00 1500.01 891 2884 0.740 10000.000 0.000 0.000 0.000 0.000 1.318
139 417.00 1500.01 834 2905 0.740 10000.000 0.000 0.000 0.000 0.000 1.318
140 420.00 1500.01 835 2990 0.740 10000.000 0.000 0.000 0.000 0.000 1.318
141 423.00 1500.01 868 2816 0.740 10000.000 0.000 0.000 0.000 0.000 1.318
142 426.00 1500.01 849 2900 0.740 10000.000 0.000 0.000 0.000 0.000 1.318
143 429.00 1500.01 880 2865 0.740 10000.000 0.000 0.000 0.000 0.000 1.318
144 432.00 1500.01 836 2954 0.740 10000.000 0.000 0.000 0.000 0.000 1.318
