# BinNR microsec tot-time (s)  O-Beam AUX Ampl_1(V) f_1(Hz) phase_1(deg) Ampl_2(V) f_2(Hz) phase_2(deg) chi(pos)
0 0.00 1500.02 204 619 0.370 10000.000 0.000 0.300 15000.000 0.000 1.494
1 3.00 1500.02 414 1273 0.370 10000.000 0.000 0.300 15000.000 0.000 1.494
2 6.00 1500.02 384 1263 0.370 10000.000 0.000 0.300 15000.000 0.000 1.494
3 9.00 1500.02 402 1160 0.370 10000.000 0.000 0.300 15000.000 0.000 1.494
4 12.00 1500.02 389 1236 0.370 10000.000 0.000 0.300 15000.000 0.000 1.494
5 15.00 1500.02 407 1261 0.370 10000.000 0.000 0.300 15000.000 0.000 1.494
6 18.00 1500.02 396 1224 0.370 10000.000 0.000 0.300 15000.000 0.000 1.494
7 21.00 1500.02 367 1226 0.370 10000.000 0.000 0.300 15000.000 0.000 1.494
8 24.00 1500.02 346 1239 0.370 10000.000 0.000 0.300 15000.000 0.000 1.494
9 27.00 1500.02 361 1137 0.370 10000.000 0.000 0.300 15000.000 0.000 1.494
10 30.00 1500.02 378 1204 0.370 10000.000 0.000 0.300 15000.000 0.000 1.494
11 33.00 1500.02 354 1196 0.370 10000.000 0.000 0.300 15000.000 0.000 1.494
12 36.00 1500.02 365 1217 0.370 10000.000 0.000 0.300 15000.000 0.000 1.494
13 39.00 1500.02 367 1202 0.370 10000.000 0.000 0.300 15000.000 0.000 1.494
14 42.00 1500.02 351 1248 0.370 10000.000 0.000 0.300 15000.000 0.000 1.494
15 45.00 1500.02 324 1216 0.370 10000.000 0.000 0.300 15000.000 0.000 1.494
16 48.00 1500.02 334 1236 0.370 10000.000 0.000 0.300 15000.000 0.000 1.494
17 51.00 1500.02 345 1189 0.370 10000.000 0.000 0.300 15000.000 0.000 1.494
18 54.00 1500.02 379 1188 0.370 10000.000 0.000 0.300 15000.000 0.000 1.494
19 57.00 1500.02 375 1257 0.370 10000.000 0.000 0.300 15000.000 0.000 1.494
20 60.00 1500.02 336 1231 0.370 10000.000 0.000 0.300 15000.000 0.000 1.494
21 63.00 1500.02 349 1285 0.370 10000.000 0.000 0.300 15000.000 0.000 1.494
22 66.00 1500.02 367 1229 0.370 10000.000 0.000 0.300 15000.000 0.000 1.494
23 69.00 1500.02 376 1227 0.370 10000.000 0.000 0.300 15000.000 0.000 1.494
24 72.00 1500.02 385 1133 0.370 10000.000 0.000 0.300 15000.000 0.000 1.494
25 75.00 1500.02 377 1121 0.370 10000.000 0.000 0.300 15000.000 0.000 1.494
26 78.00 1500.02 405 1161 0.370 10000.000 0.000 0.300 15000.000 0.000 1.494
27 81.00 1500.02 417 1118 0.370 10000.000 0.000 0.300 15000.000 0.000 1.494
28 84.00 1500.02 427 1181 0.370 10000.000 0.000 0.300 15000.000 0.000 1.494
29 87.00 1500.02 399 1163 0.370 10000.000 0.000 0.300 15000.000 0.000 1.494
30 90.00 1500.02 392 1142 0.370 10000.000 0.000 0.300 15000.000 0.000 1.494
31 93.00 1500.02 407 1088 0.370 10000.000 0.000 0.300 15000.000 0.000 1.494
32 96.00 1500.02 402 1153 0.370 10000.000 0.000 0.300 15000.000 0.000 1.494
33 99.00 1500.02 376 1137 0.370 10000.000 0.000 0.300 15000.000 0.000 1.494
34 102.00 1500.02 375 1190 0.370 10000.000 0.000 0.300 15000.000 0.000 1.494
35 105.00 1500.02 385 1146 0.370 10000.000 0.000 0.300 15000.000 0.000 1.494
36 108.00 1500.02 392 1200 0.370 10000.000 0.000 0.300 15000.000 0.000 1.494
37 111.00 1500.02 406 1126 0.370 10000.000 0.000 0.300 15000.000 0.000 1.494
38 114.00 1500.02 363 1191 0.370 10000.000 0.000 0.300 15000.000 0.000 1.494
39 117.00 1500.02 325 1208 0.370 10000.000 0.000 0.300 15000.000 0.000 1.494
40 120.00 1500.02 378 1284 0.370 10000.000 0.000 0.300 15000.000 0.000 1.494
41 123.00 1500.02 338 1186 0.370 10000.000 0.000 0.300 15000.000 0.000 1.494
42 126.00 1500.02 357 1272 0.370 10000.000 0.000 0.300 15000.000 0.000 1.494
43 129.00 1500.02 345 1147 0.370 10000.000 0.000 0.300 15000.000 0.000 1.494
44 132.00 1500.02 382 1241 0.370 10000.000 0.000 0.300 15000.000 0.000 1.494
45 135.00 1500.02 366 1215 0.370 10000.000 0.000 0.300 15000.000 0.000 1.494
46 138.00 1500.02 403 1244 0.370 10000.000 0.000 0.300 15000.000 0.000 1.494
47 141.00 1500.02 390 1254 0.370 10000.000 0.000 0.300 15000.000 0.000 1.494
48 144.00 1500.02 383 1207 0.370 10000.000 0.000 0.300 15000.000 0.000 1.494
49 147.00 1500.02 374 1180 0.370 10000.000 0.000 0.300 15000.000 0.000 1.494
50 150.00 1500.02 388 1200 0.370 10000.000 0.000 0.300 15000.000 0.000 1.494
51 153.00 1500.02 364 1232 0.370 10000.000 0.000 0.300 15000.000 0.000 1.494
52 156.00 1500.02 383 1246 0.370 10000.000 0.000 0.300 15000.000 0.000 1.494
53 159.00 1500.02 361 1192 0.370 10000.000 0.000 0.300 15000.000 0.000 1.494
54 162.00 1500.02 399 1197 0.370 10000.000 0.000 0.300 15000.000 0.000 1.494
55 165.00 1500.02 367 1219 0.370 10000.000 0.000 0.300 15000.000 0.000 1.494
56 168.00 1500.02 445 1282 0.370 10000.000 0.000 0.300 15000.000 0.000 1.494
57 171.00 1500.02 393 1150 0.370 10000.000 0.000 0.300 15000.000 0.000 1.494
58 174.00 1500.02 415 1231 0.370 10000.000 0.000 0.300 15000.000 0.000 1.494
59 177.00 1500.02 407 1222 0.370 10000.000 0.000 0.300 15000.000 0.000 1.494
60 180.00 1500.02 380 1275 0.370 10000.000 0.000 0.300 15000.000 0.000 1.494
61 183.00 1500.02 388 1167 0.370 10000.000 0.000 0.300 15000.000 0.000 1.494
62 186.00 1500.02 405 1223 0.370 10000.000 0.000 0.300 15000.000 0.000 1.494
63 189.00 1500.02 386 1226 0.370 10000.000 0.000 0.300 15000.000 0.000 1.494
64 192.00 1500.02 370 1196 0.370 10000.000 0.000 0.300 15000.000 0.000 1.494
65 195.00 1500.02 376 1104 0.370 10000.000 0.000 0.300 15000.000 0.000 1.494
66 198.00 1500.02 376 1175 0.370 10000.000 0.000 0.300 15000.000 0.000 1.494
67 201.00 1500.02 364 1157 0.370 10000.000 0.000 0.300 15000.000 0.000 1.494
68 204.00 1500.02 391 1205 0.370 10000.000 0.000 0.300 15000.000 0.000 1.494
69 207.00 1500.02 384 1117 0.370 10000.000 0.000 0.300 15000.000 0.000 1.494
70 210.00 1500.02 390 1129 0.370 10000.000 0.000 0.300 15000.000 0.000 1.494
71 213.00 1500.02 402 1147 0.370 10000.000 0.000 0.300 15000.000 0.000 1.494
72 216.00 1500.02 415 1157 0.370 10000.000 0.000 0.300 15000.000 0.000 1.494
73 219.00 1500.02 373 1090 0.370 10000.000 0.000 0.300 15000.000 0.000 1.494
74 222.00 1500.02 401 1180 0.370 10000.000 0.000 0.300 15000.000 0.000 1.494
75 225.00 1500.02 359 1175 0.370 10000.000 0.000 0.300 15000.000 0.000 1.494
76 228.00 1500.02 400 1220 0.370 10000.000 0.000 0.300 15000.000 0.000 1.494
77 231.00 1500.02 385 1212 0.370 10000.000 0.000 0.300 15000.000 0.000 1.494
78 234.00 1500.02 365 1210 0.370 10000.000 0.000 0.300 15000.000 0.000 1.494
79 237.00 1500.02 347 1228 0.370 10000.000 0.000 0.300 15000.000 0.000 1.494
80 240.00 1500.02 347 1216 0.370 10000.000 0.000 0.300 15000.000 0.000 1.494
81 243.00 1500.02 371 1279 0.370 10000.000 0.000 0.300 15000.000 0.000 1.494
82 246.00 1500.02 369 1273 0.370 10000.000 0.000 0.300 15000.000 0.000 1.494
83 249.00 1500.02 347 1215 0.370 10000.000 0.000 0.300 15000.000 0.000 1.494
84 252.00 1500.02 356 1225 0.370 10000.000 0.000 0.300 15000.000 0.000 1.494
85 255.00 1500.02 358 1273 0.370 10000.000 0.000 0.300 15000.000 0.000 1.494
86 258.00 1500.02 362 1267 0.370 10000.000 0.000 0.300 15000.000 0.000 1.494
87 261.00 1500.02 369 1255 0.370 10000.000 0.000 0.300 15000.000 0.000 1.494
88 264.00 1500.02 363 1216 0.370 10000.000 0.000 0.300 15000.000 0.000 1.494
89 267.00 1500.02 398 1186 0.370 10000.000 0.000 0.300 15000.000 0.000 1.494
90 270.00 1500.02 385 1173 0.370 10000.000 0.000 0.300 15000.000 0.000 1.494
91 273.00 1500.02 388 1101 0.370 10000.000 0.000 0.300 15000.000 0.000 1.494
92 276.00 1500.02 417 1150 0.370 10000.000 0.000 0.300 15000.000 0.000 1.494
93 279.00 1500.02 380 1156 0.370 10000.000 0.000 0.300 15000.000 0.000 1.494
94 282.00 1500.02 419 1078 0.370 10000.000 0.000 0.300 15000.000 0.000 1.494
95 285.00 1500.02 390 1153 0.370 10000.000 0.000 0.300 15000.000 0.000 1.494
96 288.00 1500.02 389 1126 0.370 10000.000 0.000 0.300 15000.000 0.000 1.494
97 291.00 1500.02 330 1073 0.370 10000.000 0.000 0.300 15000.000 0.000 1.494
98 294.00 1500.02 408 1182 0.370 10000.000 0.000 0.300 15000.000 0.000 1.494
99 297.00 1500.02 419 1181 0.370 10000.000 0.000 0.300 15000.000 0.000 1.494
100 300.00 1500.02 389 1144 0.370 10000.000 0.000 0.300 15000.000 0.000 1.494
101 303.00 1500.02 349 1227 0.370 10000.000 0.000 0.300 15000.000 0.000 1.494
102 306.00 1500.02 384 1226 0.370 10000.000 0.000 0.300 15000.000 0.000 1.494
103 309.00 1500.02 414 1210 0.370 10000.000 0.000 0.300 15000.000 0.000 1.494
104 312.00 1500.02 373 1170 0.370 10000.000 0.000 0.300 15000.000 0.000 1.494
105 315.00 1500.02 401 1203 0.370 10000.000 0.000 0.300 15000.000 0.000 1.494
106 318.00 1500.02 394 1185 0.370 10000.000 0.000 0.300 15000.000 0.000 1.494
107 321.00 1500.02 394 1233 0.370 10000.000 0.000 0.300 15000.000 0.000 1.494
108 324.00 1500.02 431 1257 0.370 10000.000 0.000 0.300 15000.000 0.000 1.494
109 327.00 1500.02 434 1213 0.370 10000.000 0.000 0.300 15000.000 0.000 1.494
110 330.00 1500.02 422 1215 0.370 10000.000 0.000 0.300 15000.000 0.000 1.494
111 333.00 1500.02 419 1193 0.370 10000.000 0.000 0.300 15000.000 0.000 1.494
112 336.00 1500.02 419 1298 0.370 10000.000 0.000 0.300 15000.000 0.000 1.494
113 339.00 1500.02 383 1208 0.370 10000.000 0.000 0.300 15000.000 0.000 1.494
114 342.00 1500.02 396 1196 0.370 10000.000 0.000 0.300 15000.000 0.000 1.494
115 345.00 1500.02 343 1284 0.370 10000.000 0.000 0.300 15000.000 0.000 1.494
116 348.00 1500.02 375 1226 0.370 10000.000 0.000 0.300 15000.000 0.000 1.494
117 351.00 1500.02 375 1188 0.370 10000.000 0.000 0.300 15000.000 0.000 1.494
118 354.00 1500.02 391 1223 0.370 10000.000 0.000 0.300 15000.000 0.000 1.494
119 357.00 1500.02 344 1198 0.370 10000.000 0.000 0.300 15000.000 0.000 1.494
120 360.00 1500.02 338 1211 0.370 10000.000 0.000 0.300 15000.000 0.000 1.494
121 363.00 1500.02 312 1167 0.370 10000.000 0.000 0.300 15000.000 0.000 1.494
122 366.00 1500.02 324 1234 0.370 10000.000 0.000 0.300 15000.000 0.000 1.494
123 369.00 1500.02 354 1208 0.370 10000.000 0.000 0.300 15000.000 0.000 1.494
124 372.00 1500.02 351 1281 0.370 10000.000 0.000 0.300 15000.000 0.000 1.494
125 375.00 1500.02 386 1265 0.370 10000.000 0.000 0.300 15000.000 0.000 1.494
126 378.00 1500.02 352 1245 0.370 10000.000 0.000 0.300 15000.000 0.000 1.494
127 381.00 1500.02 390 1267 0.370 10000.000 0.000 0.300 15000.000 0.000 1.494
128 384.00 1500.02 395 1177 0.370 10000.000 0.000 0.300 15000.000 0.000 1.494
129 387.00 1500.02 380 1193 0.370 10000.000 0.000 0.300 15000.000 0.000 1.494
130 390.00 1500.02 426 1179 0.370 10000.000 0.000 0.300 15000.000 0.000 1.494
131 393.00 1500.02 413 1222 0.370 10000.000 0.000 0.300 15000.000 0.000 1.494
132 396.00 1500.02 409 1185 0.370 10000.000 0.000 0.300 15000.000 0.000 1.494
133 399.00 1500.02 407 1210 0.370 10000.000 0.000 0.300 15000.000 0.000 1.494
134 402.00 1500.02 366 1189 0.370 10000.000 0.000 0.300 15000.000 0.000 1.494
135 405.00 1500.02 393 1104 0.370 10000.000 0.000 0.300 15000.000 0.000 1.494
136 408.00 1500.02 432 1171 0.370 10000.000 0.000 0.300 15000.000 0.000 1.494
137 411.00 1500.02 399 1135 0.370 10000.000 0.000 0.300 15000.000 0.000 1.494
138 414.00 1500.02 394 1148 0.370 10000.000 0.000 0.300 15000.000 0.000 1.494
139 417.00 1500.02 402 1118 0.370 10000.000 0.000 0.300 15000.000 0.000 1.494
140 420.00 1500.02 376 1152 0.370 10000.000 0.000 0.300 15000.000 0.000 1.494
141 423.00 1500.02 383 1223 0.370 10000.000 0.000 0.300 15000.000 0.000 1.494
142 426.00 1500.02 399 1242 0.370 10000.000 0.000 0.300 15000.000 0.000 1.494
143 429.00 1500.02 396 1235 0.370 10000.000 0.000 0.300 15000.000 0.000 1.494
144 432.00 1500.02 398 1232 0.370 10000.000 0.000 0.300 15000.000 0.000 1.494
