# BinNR microsec tot-time (s)  O-Beam AUX Ampl_1(V) f_1(Hz) phase_1(deg) Ampl_2(V) f_2(Hz) phase_2(deg) chi(pos)
0 0.00 1500.00 153 303 0.370 10000.000 0.000 0.300 15000.000 0.000 0.165
1 3.00 1500.00 292 507 0.370 10000.000 0.000 0.300 15000.000 0.000 0.165
2 6.00 1500.00 293 512 0.370 10000.000 0.000 0.300 15000.000 0.000 0.165
3 9.00 1500.00 298 487 0.370 10000.000 0.000 0.300 15000.000 0.000 0.165
4 12.00 1500.00 309 508 0.370 10000.000 0.000 0.300 15000.000 0.000 0.165
5 15.00 1500.00 308 482 0.370 10000.000 0.000 0.300 15000.000 0.000 0.165
6 18.00 1500.00 274 553 0.370 10000.000 0.000 0.300 15000.000 0.000 0.165
7 21.00 1500.00 306 565 0.370 10000.000 0.000 0.300 15000.000 0.000 0.165
8 24.00 1500.00 314 564 0.370 10000.000 0.000 0.300 15000.000 0.000 0.165
9 27.00 1500.00 302 598 0.370 10000.000 0.000 0.300 15000.000 0.000 0.165
10 30.00 1500.00 287 641 0.370 10000.000 0.000 0.300 15000.000 0.000 0.165
11 33.00 1500.00 341 572 0.370 10000.000 0.000 0.300 15000.000 0.000 0.165
12 36.00 1500.00 369 647 0.370 10000.000 0.000 0.300 15000.000 0.000 0.165
13 39.00 1500.00 331 616 0.370 10000.000 0.000 0.300 15000.000 0.000 0.165
14 42.00 1500.00 343 587 0.370 10000.000 0.000 0.300 15000.000 0.000 0.165
15 45.00 1500.00 304 546 0.370 10000.000 0.000 0.300 15000.000 0.000 0.165
16 48.00 1500.00 371 552 0.370 10000.000 0.000 0.300 15000.000 0.000 0.165
17 51.00 1500.00 308 542 0.370 10000.000 0.000 0.300 15000.000 0.000 0.165
18 54.00 1500.00 356 486 0.370 10000.000 0.000 0.300 15000.000 0.000 0.165
19 57.00 1500.00 311 493 0.370 10000.000 0.000 0.300 15000.000 0.000 0.165
20 60.00 1500.00 311 527 0.370 10000.000 0.000 0.300 15000.000 0.000 0.165
21 63.00 1500.00 332 588 0.370 10000.000 0.000 0.300 15000.000 0.000 0.165
22 66.00 1500.00 334 552 0.370 10000.000 0.000 0.300 15000.000 0.000 0.165
23 69.00 1500.00 327 614 0.370 10000.000 0.000 0.300 15000.000 0.000 0.165
24 72.00 1500.00 300 661 0.370 10000.000 0.000 0.300 15000.000 0.000 0.165
25 75.00 1500.00 276 692 0.370 10000.000 0.000 0.300 15000.000 0.000 0.165
26 78.00 1500.00 275 722 0.370 10000.000 0.000 0.300 15000.000 0.000 0.165
27 81.00 1500.00 272 675 0.370 10000.000 0.000 0.300 15000.000 0.000 0.165
28 84.00 1500.00 261 692 0.370 10000.000 0.000 0.300 15000.000 0.000 0.165
29 87.00 1500.00 249 733 0.370 10000.000 0.000 0.300 15000.000 0.000 0.165
30 90.00 1500.00 281 730 0.370 10000.000 0.000 0.300 15000.000 0.000 0.165
31 93.00 1500.00 289 739 0.370 10000.000 0.000 0.300 15000.000 0.000 0.165
32 96.00 1500.00 280 682 0.370 10000.000 0.000 0.300 15000.000 0.000 0.165
33 99.00 1500.00 286 661 0.370 10000.000 0.000 0.300 15000.000 0.000 0.165
34 102.00 1500.00 293 712 0.370 10000.000 0.000 0.300 15000.000 0.000 0.165
35 105.00 1500.00 325 608 0.370 10000.000 0.000 0.300 15000.000 0.000 0.165
36 108.00 1500.00 287 578 0.370 10000.000 0.000 0.300 15000.000 0.000 0.165
37 111.00 1500.00 327 622 0.370 10000.000 0.000 0.300 15000.000 0.000 0.165
38 114.00 1500.00 333 572 0.370 10000.000 0.000 0.300 15000.000 0.000 0.165
39 117.00 1500.00 342 528 0.370 10000.000 0.000 0.300 15000.000 0.000 0.165
40 120.00 1500.00 331 530 0.370 10000.000 0.000 0.300 15000.000 0.000 0.165
41 123.00 1500.00 336 542 0.370 10000.000 0.000 0.300 15000.000 0.000 0.165
42 126.00 1500.00 332 563 0.370 10000.000 0.000 0.300 15000.000 0.000 0.165
43 129.00 1500.00 320 512 0.370 10000.000 0.000 0.300 15000.000 0.000 0.165
44 132.00 1500.00 311 576 0.370 10000.000 0.000 0.300 15000.000 0.000 0.165
45 135.00 1500.00 322 582 0.370 10000.000 0.000 0.300 15000.000 0.000 0.165
46 138.00 1500.00 333 610 0.370 10000.000 0.000 0.300 15000.000 0.000 0.165
47 141.00 1500.00 315 592 0.370 10000.000 0.000 0.300 15000.000 0.000 0.165
48 144.00 1500.00 327 581 0.370 10000.000 0.000 0.300 15000.000 0.000 0.165
49 147.00 1500.00 296 630 0.370 10000.000 0.000 0.300 15000.000 0.000 0.165
50 150.00 1500.00 291 597 0.370 10000.000 0.000 0.300 15000.000 0.000 0.165
51 153.00 1500.00 290 559 0.370 10000.000 0.000 0.300 15000.000 0.000 0.165
52 156.00 1500.00 308 629 0.370 10000.000 0.000 0.300 15000.000 0.000 0.165
53 159.00 1500.00 286 552 0.370 10000.000 0.000 0.300 15000.000 0.000 0.165
54 162.00 1500.00 294 562 0.370 10000.000 0.000 0.300 15000.000 0.000 0.165
55 165.00 1500.00 285 595 0.370 10000.000 0.000 0.300 15000.000 0.000 0.165
56 168.00 1500.00 296 548 0.370 10000.000 0.000 0.300 15000.000 0.000 0.165
57 171.00 1500.00 255 512 0.370 10000.000 0.000 0.300 15000.000 0.000 0.165
58 174.00 1500.00 315 555 0.370 10000.000 0.000 0.300 15000.000 0.000 0.165
59 177.00 1500.00 287 510 0.370 10000.000 0.000 0.300 15000.000 0.000 0.165
60 180.00 1500.00 309 544 0.370 10000.000 0.000 0.300 15000.000 0.000 0.165
61 183.00 1500.00 298 572 0.370 10000.000 0.000 0.300 15000.000 0.000 0.165
62 186.00 1500.00 301 611 0.370 10000.000 0.000 0.300 15000.000 0.000 0.165
63 189.00 1500.00 290 627 0.370 10000.000 0.000 0.300 15000.000 0.000 0.165
64 192.00 1500.00 333 640 0.370 10000.000 0.000 0.300 15000.000 0.000 0.165
65 195.00 1500.00 318 662 0.370 10000.000 0.000 0.300 15000.000 0.000 0.165
66 198.00 1500.00 302 770 0.370 10000.000 0.000 0.300 15000.000 0.000 0.165
67 201.00 1500.00 311 654 0.370 10000.000 0.000 0.300 15000.000 0.000 0.165
68 204.00 1500.00 317 735 0.370 10000.000 0.000 0.300 15000.000 0.000 0.165
69 207.00 1500.00 281 768 0.370 10000.000 0.000 0.300 15000.000 0.000 0.165
70 210.00 1500.00 310 753 0.370 10000.000 0.000 0.300 15000.000 0.000 0.165
71 213.00 1500.00 280 759 0.370 10000.000 0.000 0.300 15000.000 0.000 0.165
72 216.00 1500.00 272 754 0.370 10000.000 0.000 0.300 15000.000 0.000 0.165
73 219.00 1500.00 299 658 0.370 10000.000 0.000 0.300 15000.000 0.000 0.165
74 222.00 1500.00 280 669 0.370 10000.000 0.000 0.300 15000.000 0.000 0.165
75 225.00 1500.00 307 706 0.370 10000.000 0.000 0.300 15000.000 0.000 0.165
76 228.00 1500.00 348 621 0.370 10000.000 0.000 0.300 15000.000 0.000 0.165
77 231.00 1500.00 309 541 0.370 10000.000 0.000 0.300 15000.000 0.000 0.165
78 234.00 1500.00 285 566 0.370 10000.000 0.000 0.300 15000.000 0.000 0.165
79 237.00 1500.00 295 507 0.370 10000.000 0.000 0.300 15000.000 0.000 0.165
80 240.00 1500.00 367 451 0.370 10000.000 0.000 0.300 15000.000 0.000 0.165
81 243.00 1500.00 323 451 0.370 10000.000 0.000 0.300 15000.000 0.000 0.165
82 246.00 1500.00 326 444 0.370 10000.000 0.000 0.300 15000.000 0.000 0.165
83 249.00 1500.00 377 432 0.370 10000.000 0.000 0.300 15000.000 0.000 0.165
84 252.00 1500.00 325 444 0.370 10000.000 0.000 0.300 15000.000 0.000 0.165
85 255.00 1500.00 304 454 0.370 10000.000 0.000 0.300 15000.000 0.000 0.165
86 258.00 1500.00 327 460 0.370 10000.000 0.000 0.300 15000.000 0.000 0.165
87 261.00 1500.00 304 510 0.370 10000.000 0.000 0.300 15000.000 0.000 0.165
88 264.00 1500.00 329 526 0.370 10000.000 0.000 0.300 15000.000 0.000 0.165
89 267.00 1500.00 286 591 0.370 10000.000 0.000 0.300 15000.000 0.000 0.165
90 270.00 1500.00 335 669 0.370 10000.000 0.000 0.300 15000.000 0.000 0.165
91 273.00 1500.00 271 675 0.370 10000.000 0.000 0.300 15000.000 0.000 0.165
92 276.00 1500.00 293 728 0.370 10000.000 0.000 0.300 15000.000 0.000 0.165
93 279.00 1500.00 292 710 0.370 10000.000 0.000 0.300 15000.000 0.000 0.165
94 282.00 1500.00 237 731 0.370 10000.000 0.000 0.300 15000.000 0.000 0.165
95 285.00 1500.00 270 776 0.370 10000.000 0.000 0.300 15000.000 0.000 0.165
96 288.00 1500.00 274 802 0.370 10000.000 0.000 0.300 15000.000 0.000 0.165
97 291.00 1500.00 288 706 0.370 10000.000 0.000 0.300 15000.000 0.000 0.165
98 294.00 1500.00 328 668 0.370 10000.000 0.000 0.300 15000.000 0.000 0.165
99 297.00 1500.00 279 785 0.370 10000.000 0.000 0.300 15000.000 0.000 0.165
100 300.00 1500.00 310 624 0.370 10000.000 0.000 0.300 15000.000 0.000 0.165
101 303.00 1500.00 308 585 0.370 10000.000 0.000 0.300 15000.000 0.000 0.165
102 306.00 1500.00 277 633 0.370 10000.000 0.000 0.300 15000.000 0.000 0.165
103 309.00 1500.00 272 603 0.370 10000.000 0.000 0.300 15000.000 0.000 0.165
104 312.00 1500.00 336 580 0.370 10000.000 0.000 0.300 15000.000 0.000 0.165
105 315.00 1500.00 317 562 0.370 10000.000 0.000 0.300 15000.000 0.000 0.165
106 318.00 1500.00 294 601 0.370 10000.000 0.000 0.300 15000.000 0.000 0.165
107 321.00 1500.00 272 558 0.370 10000.000 0.000 0.300 15000.000 0.000 0.165
108 324.00 1500.00 303 582 0.370 10000.000 0.000 0.300 15000.000 0.000 0.165
109 327.00 1500.00 312 529 0.370 10000.000 0.000 0.300 15000.000 0.000 0.165
110 330.00 1500.00 288 563 0.370 10000.000 0.000 0.300 15000.000 0.000 0.165
111 333.00 1500.00 269 563 0.370 10000.000 0.000 0.300 15000.000 0.000 0.165
112 336.00 1500.00 295 584 0.370 10000.000 0.000 0.300 15000.000 0.000 0.165
113 339.00 1500.00 303 585 0.370 10000.000 0.000 0.300 15000.000 0.000 0.165
114 342.00 1500.00 348 630 0.370 10000.000 0.000 0.300 15000.000 0.000 0.165
115 345.00 1500.00 306 644 0.370 10000.000 0.000 0.300 15000.000 0.000 0.165
116 348.00 1500.00 365 586 0.370 10000.000 0.000 0.300 15000.000 0.000 0.165
117 351.00 1500.00 346 592 0.370 10000.000 0.000 0.300 15000.000 0.000 0.165
118 354.00 1500.00 333 585 0.370 10000.000 0.000 0.300 15000.000 0.000 0.165
119 357.00 1500.00 333 590 0.370 10000.000 0.000 0.300 15000.000 0.000 0.165
120 360.00 1500.00 352 565 0.370 10000.000 0.000 0.300 15000.000 0.000 0.165
121 363.00 1500.00 328 513 0.370 10000.000 0.000 0.300 15000.000 0.000 0.165
122 366.00 1500.00 338 547 0.370 10000.000 0.000 0.300 15000.000 0.000 0.165
123 369.00 1500.00 331 556 0.370 10000.000 0.000 0.300 15000.000 0.000 0.165
124 372.00 1500.00 335 533 0.370 10000.000 0.000 0.300 15000.000 0.000 0.165
125 375.00 1500.00 340 534 0.370 10000.000 0.000 0.300 15000.000 0.000 0.165
126 378.00 1500.00 305 517 0.370 10000.000 0.000 0.300 15000.000 0.000 0.165
127 381.00 1500.00 284 598 0.370 10000.000 0.000 0.300 15000.000 0.000 0.165
128 384.00 1500.00 312 566 0.370 10000.000 0.000 0.300 15000.000 0.000 0.165
129 387.00 1500.00 315 599 0.370 10000.000 0.000 0.300 15000.000 0.000 0.165
130 390.00 1500.00 273 637 0.370 10000.000 0.000 0.300 15000.000 0.000 0.165
131 393.00 1500.00 287 635 0.370 10000.000 0.000 0.300 15000.000 0.000 0.165
132 396.00 1500.00 282 690 0.370 10000.000 0.000 0.300 15000.000 0.000 0.165
133 399.00 1500.00 313 699 0.370 10000.000 0.000 0.300 15000.000 0.000 0.165
134 402.00 1500.00 303 753 0.370 10000.000 0.000 0.300 15000.000 0.000 0.165
135 405.00 1500.00 294 741 0.370 10000.000 0.000 0.300 15000.000 0.000 0.165
136 408.00 1500.00 280 778 0.370 10000.000 0.000 0.300 15000.000 0.000 0.165
137 411.00 1500.00 289 750 0.370 10000.000 0.000 0.300 15000.000 0.000 0.165
138 414.00 1500.00 329 795 0.370 10000.000 0.000 0.300 15000.000 0.000 0.165
139 417.00 1500.00 297 728 0.370 10000.000 0.000 0.300 15000.000 0.000 0.165
140 420.00 1500.00 298 718 0.370 10000.000 0.000 0.300 15000.000 0.000 0.165
141 423.00 1500.00 284 599 0.370 10000.000 0.000 0.300 15000.000 0.000 0.165
142 426.00 1500.00 298 678 0.370 10000.000 0.000 0.300 15000.000 0.000 0.165
143 429.00 1500.00 295 581 0.370 10000.000 0.000 0.300 15000.000 0.000 0.165
144 432.00 1500.00 295 558 0.370 10000.000 0.000 0.300 15000.000 0.000 0.165
