# BinNR microsec tot-time (s)  O-Beam AUX Ampl(V) f(Hz) phase(deg) chi(pos)
0 0.00 1500.02 56 92 1.520 10000.000 0.000 1.165
1 3.00 1500.02 133 226 1.520 10000.000 0.000 1.165
2 6.00 1500.02 140 185 1.520 10000.000 0.000 1.165
3 9.00 1500.02 140 201 1.520 10000.000 0.000 1.165
4 12.00 1500.02 166 194 1.520 10000.000 0.000 1.165
5 15.00 1500.02 137 185 1.520 10000.000 0.000 1.165
6 18.00 1500.02 165 209 1.520 10000.000 0.000 1.165
7 21.00 1500.02 151 189 1.520 10000.000 0.000 1.165
8 24.00 1500.02 148 203 1.520 10000.000 0.000 1.165
9 27.00 1500.02 146 210 1.520 10000.000 0.000 1.165
10 30.00 1500.02 150 188 1.520 10000.000 0.000 1.165
11 33.00 1500.02 145 193 1.520 10000.000 0.000 1.165
12 36.00 1500.02 144 191 1.520 10000.000 0.000 1.165
13 39.00 1500.02 145 202 1.520 10000.000 0.000 1.165
14 42.00 1500.02 158 200 1.520 10000.000 0.000 1.165
15 45.00 1500.02 156 194 1.520 10000.000 0.000 1.165
16 48.00 1500.02 142 253 1.520 10000.000 0.000 1.165
17 51.00 1500.02 141 188 1.520 10000.000 0.000 1.165
18 54.00 1500.02 127 182 1.520 10000.000 0.000 1.165
19 57.00 1500.02 133 191 1.520 10000.000 0.000 1.165
20 60.00 1500.02 120 207 1.520 10000.000 0.000 1.165
21 63.00 1500.02 147 202 1.520 10000.000 0.000 1.165
22 66.00 1500.02 138 181 1.520 10000.000 0.000 1.165
23 69.00 1500.02 148 221 1.520 10000.000 0.000 1.165
24 72.00 1500.02 160 209 1.520 10000.000 0.000 1.165
25 75.00 1500.02 146 185 1.520 10000.000 0.000 1.165
26 78.00 1500.02 167 188 1.520 10000.000 0.000 1.165
27 81.00 1500.02 150 201 1.520 10000.000 0.000 1.165
28 84.00 1500.02 142 180 1.520 10000.000 0.000 1.165
29 87.00 1500.02 134 172 1.520 10000.000 0.000 1.165
30 90.00 1500.02 131 179 1.520 10000.000 0.000 1.165
31 93.00 1500.02 148 188 1.520 10000.000 0.000 1.165
32 96.00 1500.02 157 196 1.520 10000.000 0.000 1.165
33 99.00 1500.02 151 218 1.520 10000.000 0.000 1.165
34 102.00 1500.02 121 184 1.520 10000.000 0.000 1.165
35 105.00 1500.02 145 206 1.520 10000.000 0.000 1.165
36 108.00 1500.02 142 196 1.520 10000.000 0.000 1.165
37 111.00 1500.02 165 199 1.520 10000.000 0.000 1.165
38 114.00 1500.02 154 215 1.520 10000.000 0.000 1.165
39 117.00 1500.02 143 202 1.520 10000.000 0.000 1.165
40 120.00 1500.02 137 209 1.520 10000.000 0.000 1.165
41 123.00 1500.02 130 201 1.520 10000.000 0.000 1.165
42 126.00 1500.02 159 198 1.520 10000.000 0.000 1.165
43 129.00 1500.02 147 206 1.520 10000.000 0.000 1.165
44 132.00 1500.02 148 195 1.520 10000.000 0.000 1.165
45 135.00 1500.02 139 196 1.520 10000.000 0.000 1.165
46 138.00 1500.02 137 206 1.520 10000.000 0.000 1.165
47 141.00 1500.02 149 211 1.520 10000.000 0.000 1.165
48 144.00 1500.02 150 195 1.520 10000.000 0.000 1.165
49 147.00 1500.02 142 215 1.520 10000.000 0.000 1.165
50 150.00 1500.02 140 195 1.520 10000.000 0.000 1.165
51 153.00 1500.02 143 226 1.520 10000.000 0.000 1.165
52 156.00 1500.02 150 218 1.520 10000.000 0.000 1.165
53 159.00 1500.02 129 187 1.520 10000.000 0.000 1.165
54 162.00 1500.02 146 214 1.520 10000.000 0.000 1.165
55 165.00 1500.02 153 198 1.520 10000.000 0.000 1.165
56 168.00 1500.02 138 204 1.520 10000.000 0.000 1.165
57 171.00 1500.02 165 216 1.520 10000.000 0.000 1.165
58 174.00 1500.02 139 190 1.520 10000.000 0.000 1.165
59 177.00 1500.02 134 225 1.520 10000.000 0.000 1.165
60 180.00 1500.02 148 201 1.520 10000.000 0.000 1.165
61 183.00 1500.02 153 198 1.520 10000.000 0.000 1.165
62 186.00 1500.02 137 198 1.520 10000.000 0.000 1.165
63 189.00 1500.02 148 235 1.520 10000.000 0.000 1.165
64 192.00 1500.02 143 186 1.520 10000.000 0.000 1.165
65 195.00 1500.02 148 214 1.520 10000.000 0.000 1.165
66 198.00 1500.02 147 176 1.520 10000.000 0.000 1.165
67 201.00 1500.02 131 225 1.520 10000.000 0.000 1.165
68 204.00 1500.02 146 210 1.520 10000.000 0.000 1.165
69 207.00 1500.02 138 189 1.520 10000.000 0.000 1.165
70 210.00 1500.02 141 195 1.520 10000.000 0.000 1.165
71 213.00 1500.02 161 188 1.520 10000.000 0.000 1.165
72 216.00 1500.02 147 202 1.520 10000.000 0.000 1.165
73 219.00 1500.02 143 200 1.520 10000.000 0.000 1.165
74 222.00 1500.02 144 228 1.520 10000.000 0.000 1.165
75 225.00 1500.02 151 219 1.520 10000.000 0.000 1.165
76 228.00 1500.02 140 198 1.520 10000.000 0.000 1.165
77 231.00 1500.02 162 212 1.520 10000.000 0.000 1.165
78 234.00 1500.02 129 178 1.520 10000.000 0.000 1.165
79 237.00 1500.02 158 220 1.520 10000.000 0.000 1.165
80 240.00 1500.02 130 196 1.520 10000.000 0.000 1.165
81 243.00 1500.02 137 200 1.520 10000.000 0.000 1.165
82 246.00 1500.02 128 216 1.520 10000.000 0.000 1.165
83 249.00 1500.02 137 207 1.520 10000.000 0.000 1.165
84 252.00 1500.02 150 229 1.520 10000.000 0.000 1.165
85 255.00 1500.02 160 209 1.520 10000.000 0.000 1.165
86 258.00 1500.02 156 205 1.520 10000.000 0.000 1.165
87 261.00 1500.02 131 206 1.520 10000.000 0.000 1.165
88 264.00 1500.02 157 199 1.520 10000.000 0.000 1.165
89 267.00 1500.02 130 183 1.520 10000.000 0.000 1.165
90 270.00 1500.02 171 201 1.520 10000.000 0.000 1.165
91 273.00 1500.02 152 180 1.520 10000.000 0.000 1.165
92 276.00 1500.02 151 195 1.520 10000.000 0.000 1.165
93 279.00 1500.02 145 206 1.520 10000.000 0.000 1.165
94 282.00 1500.02 141 201 1.520 10000.000 0.000 1.165
95 285.00 1500.02 161 207 1.520 10000.000 0.000 1.165
96 288.00 1500.02 159 214 1.520 10000.000 0.000 1.165
97 291.00 1500.02 144 197 1.520 10000.000 0.000 1.165
98 294.00 1500.02 128 200 1.520 10000.000 0.000 1.165
99 297.00 1500.02 128 203 1.520 10000.000 0.000 1.165
100 300.00 1500.02 140 199 1.520 10000.000 0.000 1.165
101 303.00 1500.02 130 205 1.520 10000.000 0.000 1.165
102 306.00 1500.02 153 182 1.520 10000.000 0.000 1.165
103 309.00 1500.02 144 185 1.520 10000.000 0.000 1.165
104 312.00 1500.02 134 214 1.520 10000.000 0.000 1.165
105 315.00 1500.02 152 207 1.520 10000.000 0.000 1.165
106 318.00 1500.02 140 199 1.520 10000.000 0.000 1.165
107 321.00 1500.02 151 196 1.520 10000.000 0.000 1.165
108 324.00 1500.02 151 208 1.520 10000.000 0.000 1.165
109 327.00 1500.02 142 178 1.520 10000.000 0.000 1.165
110 330.00 1500.02 137 220 1.520 10000.000 0.000 1.165
111 333.00 1500.02 140 187 1.520 10000.000 0.000 1.165
112 336.00 1500.02 133 212 1.520 10000.000 0.000 1.165
113 339.00 1500.02 153 183 1.520 10000.000 0.000 1.165
114 342.00 1500.02 156 204 1.520 10000.000 0.000 1.165
115 345.00 1500.02 148 188 1.520 10000.000 0.000 1.165
116 348.00 1500.02 147 207 1.520 10000.000 0.000 1.165
117 351.00 1500.02 147 232 1.520 10000.000 0.000 1.165
118 354.00 1500.02 151 220 1.520 10000.000 0.000 1.165
119 357.00 1500.02 144 209 1.520 10000.000 0.000 1.165
120 360.00 1500.02 159 206 1.520 10000.000 0.000 1.165
121 363.00 1500.02 140 192 1.520 10000.000 0.000 1.165
122 366.00 1500.02 159 194 1.520 10000.000 0.000 1.165
123 369.00 1500.02 145 206 1.520 10000.000 0.000 1.165
124 372.00 1500.02 145 215 1.520 10000.000 0.000 1.165
125 375.00 1500.02 160 200 1.520 10000.000 0.000 1.165
126 378.00 1500.02 155 174 1.520 10000.000 0.000 1.165
127 381.00 1500.02 137 192 1.520 10000.000 0.000 1.165
128 384.00 1500.02 152 161 1.520 10000.000 0.000 1.165
129 387.00 1500.02 130 190 1.520 10000.000 0.000 1.165
130 390.00 1500.02 133 190 1.520 10000.000 0.000 1.165
131 393.00 1500.02 137 207 1.520 10000.000 0.000 1.165
132 396.00 1500.02 142 195 1.520 10000.000 0.000 1.165
133 399.00 1500.02 139 180 1.520 10000.000 0.000 1.165
134 402.00 1500.02 147 205 1.520 10000.000 0.000 1.165
135 405.00 1500.02 131 202 1.520 10000.000 0.000 1.165
136 408.00 1500.02 125 184 1.520 10000.000 0.000 1.165
137 411.00 1500.02 149 202 1.520 10000.000 0.000 1.165
138 414.00 1500.02 136 194 1.520 10000.000 0.000 1.165
139 417.00 1500.02 151 184 1.520 10000.000 0.000 1.165
140 420.00 1500.02 149 193 1.520 10000.000 0.000 1.165
141 423.00 1500.02 108 199 1.520 10000.000 0.000 1.165
142 426.00 1500.02 158 196 1.520 10000.000 0.000 1.165
143 429.00 1500.02 131 186 1.520 10000.000 0.000 1.165
144 432.00 1500.02 146 215 1.520 10000.000 0.000 1.165
