# BinNR microsec tot-time (s)  O-Beam AUX Ampl(V) f(Hz) phase(deg) chi(pos)
0 0.00 1500.03 97 197 1.520 10000.000 0.000 0.835
1 3.00 1500.03 232 382 1.520 10000.000 0.000 0.835
2 6.00 1500.03 220 393 1.520 10000.000 0.000 0.835
3 9.00 1500.03 217 403 1.520 10000.000 0.000 0.835
4 12.00 1500.03 206 355 1.520 10000.000 0.000 0.835
5 15.00 1500.03 199 365 1.520 10000.000 0.000 0.835
6 18.00 1500.03 212 367 1.520 10000.000 0.000 0.835
7 21.00 1500.03 195 363 1.520 10000.000 0.000 0.835
8 24.00 1500.03 198 368 1.520 10000.000 0.000 0.835
9 27.00 1500.03 194 376 1.520 10000.000 0.000 0.835
10 30.00 1500.03 231 356 1.520 10000.000 0.000 0.835
11 33.00 1500.03 202 367 1.520 10000.000 0.000 0.835
12 36.00 1500.03 220 363 1.520 10000.000 0.000 0.835
13 39.00 1500.03 206 365 1.520 10000.000 0.000 0.835
14 42.00 1500.03 219 328 1.520 10000.000 0.000 0.835
15 45.00 1500.03 211 326 1.520 10000.000 0.000 0.835
16 48.00 1500.03 191 366 1.520 10000.000 0.000 0.835
17 51.00 1500.03 203 389 1.520 10000.000 0.000 0.835
18 54.00 1500.03 225 328 1.520 10000.000 0.000 0.835
19 57.00 1500.03 200 360 1.520 10000.000 0.000 0.835
20 60.00 1500.03 211 385 1.520 10000.000 0.000 0.835
21 63.00 1500.03 190 348 1.520 10000.000 0.000 0.835
22 66.00 1500.03 227 389 1.520 10000.000 0.000 0.835
23 69.00 1500.03 203 397 1.520 10000.000 0.000 0.835
24 72.00 1500.03 210 371 1.520 10000.000 0.000 0.835
25 75.00 1500.03 205 329 1.520 10000.000 0.000 0.835
26 78.00 1500.03 218 363 1.520 10000.000 0.000 0.835
27 81.00 1500.03 185 372 1.520 10000.000 0.000 0.835
28 84.00 1500.03 191 343 1.520 10000.000 0.000 0.835
29 87.00 1500.03 197 366 1.520 10000.000 0.000 0.835
30 90.00 1500.03 206 364 1.520 10000.000 0.000 0.835
31 93.00 1500.03 166 344 1.520 10000.000 0.000 0.835
32 96.00 1500.03 204 388 1.520 10000.000 0.000 0.835
33 99.00 1500.03 205 352 1.520 10000.000 0.000 0.835
34 102.00 1500.03 205 368 1.520 10000.000 0.000 0.835
35 105.00 1500.03 198 384 1.520 10000.000 0.000 0.835
36 108.00 1500.03 202 359 1.520 10000.000 0.000 0.835
37 111.00 1500.03 200 343 1.520 10000.000 0.000 0.835
38 114.00 1500.03 200 405 1.520 10000.000 0.000 0.835
39 117.00 1500.03 220 354 1.520 10000.000 0.000 0.835
40 120.00 1500.03 188 377 1.520 10000.000 0.000 0.835
41 123.00 1500.03 193 365 1.520 10000.000 0.000 0.835
42 126.00 1500.03 190 394 1.520 10000.000 0.000 0.835
43 129.00 1500.03 224 396 1.520 10000.000 0.000 0.835
44 132.00 1500.03 203 370 1.520 10000.000 0.000 0.835
45 135.00 1500.03 200 340 1.520 10000.000 0.000 0.835
46 138.00 1500.03 221 370 1.520 10000.000 0.000 0.835
47 141.00 1500.03 187 385 1.520 10000.000 0.000 0.835
48 144.00 1500.03 180 341 1.520 10000.000 0.000 0.835
49 147.00 1500.03 191 364 1.520 10000.000 0.000 0.835
50 150.00 1500.03 207 364 1.520 10000.000 0.000 0.835
51 153.00 1500.03 228 357 1.520 10000.000 0.000 0.835
52 156.00 1500.03 201 380 1.520 10000.000 0.000 0.835
53 159.00 1500.03 189 358 1.520 10000.000 0.000 0.835
54 162.00 1500.03 211 408 1.520 10000.000 0.000 0.835
55 165.00 1500.03 204 402 1.520 10000.000 0.000 0.835
56 168.00 1500.03 207 352 1.520 10000.000 0.000 0.835
57 171.00 1500.03 204 381 1.520 10000.000 0.000 0.835
58 174.00 1500.03 173 386 1.520 10000.000 0.000 0.835
59 177.00 1500.03 210 396 1.520 10000.000 0.000 0.835
60 180.00 1500.03 187 342 1.520 10000.000 0.000 0.835
61 183.00 1500.03 190 388 1.520 10000.000 0.000 0.835
62 186.00 1500.03 184 376 1.520 10000.000 0.000 0.835
63 189.00 1500.03 198 352 1.520 10000.000 0.000 0.835
64 192.00 1500.03 192 366 1.520 10000.000 0.000 0.835
65 195.00 1500.03 206 393 1.520 10000.000 0.000 0.835
66 198.00 1500.03 204 354 1.520 10000.000 0.000 0.835
67 201.00 1500.03 192 376 1.520 10000.000 0.000 0.835
68 204.00 1500.03 204 370 1.520 10000.000 0.000 0.835
69 207.00 1500.03 221 347 1.520 10000.000 0.000 0.835
70 210.00 1500.03 193 378 1.520 10000.000 0.000 0.835
71 213.00 1500.03 188 362 1.520 10000.000 0.000 0.835
72 216.00 1500.03 199 412 1.520 10000.000 0.000 0.835
73 219.00 1500.03 171 384 1.520 10000.000 0.000 0.835
74 222.00 1500.03 194 379 1.520 10000.000 0.000 0.835
75 225.00 1500.03 217 370 1.520 10000.000 0.000 0.835
76 228.00 1500.03 203 322 1.520 10000.000 0.000 0.835
77 231.00 1500.03 185 389 1.520 10000.000 0.000 0.835
78 234.00 1500.03 204 377 1.520 10000.000 0.000 0.835
79 237.00 1500.03 199 394 1.520 10000.000 0.000 0.835
80 240.00 1500.03 226 411 1.520 10000.000 0.000 0.835
81 243.00 1500.03 175 354 1.520 10000.000 0.000 0.835
82 246.00 1500.03 193 392 1.520 10000.000 0.000 0.835
83 249.00 1500.03 219 361 1.520 10000.000 0.000 0.835
84 252.00 1500.03 203 372 1.520 10000.000 0.000 0.835
85 255.00 1500.03 216 351 1.520 10000.000 0.000 0.835
86 258.00 1500.03 201 374 1.520 10000.000 0.000 0.835
87 261.00 1500.03 204 378 1.520 10000.000 0.000 0.835
88 264.00 1500.03 208 398 1.520 10000.000 0.000 0.835
89 267.00 1500.03 210 372 1.520 10000.000 0.000 0.835
90 270.00 1500.03 218 350 1.520 10000.000 0.000 0.835
91 273.00 1500.03 176 354 1.520 10000.000 0.000 0.835
92 276.00 1500.03 220 401 1.520 10000.000 0.000 0.835
93 279.00 1500.03 198 321 1.520 10000.000 0.000 0.835
94 282.00 1500.03 223 387 1.520 10000.000 0.000 0.835
95 285.00 1500.03 179 343 1.520 10000.000 0.000 0.835
96 288.00 1500.03 197 352 1.520 10000.000 0.000 0.835
97 291.00 1500.03 218 350 1.520 10000.000 0.000 0.835
98 294.00 1500.03 206 369 1.520 10000.000 0.000 0.835
99 297.00 1500.03 214 362 1.520 10000.000 0.000 0.835
100 300.00 1500.03 209 378 1.520 10000.000 0.000 0.835
101 303.00 1500.03 184 362 1.520 10000.000 0.000 0.835
102 306.00 1500.03 221 395 1.520 10000.000 0.000 0.835
103 309.00 1500.03 199 363 1.520 10000.000 0.000 0.835
104 312.00 1500.03 193 393 1.520 10000.000 0.000 0.835
105 315.00 1500.03 175 370 1.520 10000.000 0.000 0.835
106 318.00 1500.03 183 384 1.520 10000.000 0.000 0.835
107 321.00 1500.03 187 326 1.520 10000.000 0.000 0.835
108 324.00 1500.03 205 351 1.520 10000.000 0.000 0.835
109 327.00 1500.03 207 385 1.520 10000.000 0.000 0.835
110 330.00 1500.03 225 354 1.520 10000.000 0.000 0.835
111 333.00 1500.03 219 354 1.520 10000.000 0.000 0.835
112 336.00 1500.03 216 350 1.520 10000.000 0.000 0.835
113 339.00 1500.03 192 351 1.520 10000.000 0.000 0.835
114 342.00 1500.03 209 395 1.520 10000.000 0.000 0.835
115 345.00 1500.03 215 365 1.520 10000.000 0.000 0.835
116 348.00 1500.03 208 362 1.520 10000.000 0.000 0.835
117 351.00 1500.03 208 390 1.520 10000.000 0.000 0.835
118 354.00 1500.03 183 391 1.520 10000.000 0.000 0.835
119 357.00 1500.03 195 340 1.520 10000.000 0.000 0.835
120 360.00 1500.03 215 334 1.520 10000.000 0.000 0.835
121 363.00 1500.03 208 374 1.520 10000.000 0.000 0.835
122 366.00 1500.03 176 383 1.520 10000.000 0.000 0.835
123 369.00 1500.03 209 348 1.520 10000.000 0.000 0.835
124 372.00 1500.03 218 359 1.520 10000.000 0.000 0.835
125 375.00 1500.03 212 379 1.520 10000.000 0.000 0.835
126 378.00 1500.03 202 374 1.520 10000.000 0.000 0.835
127 381.00 1500.03 197 343 1.520 10000.000 0.000 0.835
128 384.00 1500.03 204 442 1.520 10000.000 0.000 0.835
129 387.00 1500.03 188 371 1.520 10000.000 0.000 0.835
130 390.00 1500.03 189 396 1.520 10000.000 0.000 0.835
131 393.00 1500.03 200 354 1.520 10000.000 0.000 0.835
132 396.00 1500.03 196 380 1.520 10000.000 0.000 0.835
133 399.00 1500.03 192 365 1.520 10000.000 0.000 0.835
134 402.00 1500.03 217 399 1.520 10000.000 0.000 0.835
135 405.00 1500.03 215 378 1.520 10000.000 0.000 0.835
136 408.00 1500.03 193 348 1.520 10000.000 0.000 0.835
137 411.00 1500.03 217 385 1.520 10000.000 0.000 0.835
138 414.00 1500.03 187 355 1.520 10000.000 0.000 0.835
139 417.00 1500.03 224 379 1.520 10000.000 0.000 0.835
140 420.00 1500.03 173 400 1.520 10000.000 0.000 0.835
141 423.00 1500.03 183 342 1.520 10000.000 0.000 0.835
142 426.00 1500.03 187 390 1.520 10000.000 0.000 0.835
143 429.00 1500.03 205 405 1.520 10000.000 0.000 0.835
144 432.00 1500.03 187 370 1.520 10000.000 0.000 0.835
