# BinNR microsec tot-time (s)  O-Beam AUX Ampl(V) f(Hz) phase(deg) chi(pos)
0 0.00 1500.00 80 169 1.520 10000.000 0.000 1.329
1 3.00 1500.00 164 299 1.520 10000.000 0.000 1.329
2 6.00 1500.00 175 312 1.520 10000.000 0.000 1.329
3 9.00 1500.00 166 268 1.520 10000.000 0.000 1.329
4 12.00 1500.00 162 305 1.520 10000.000 0.000 1.329
5 15.00 1500.00 161 340 1.520 10000.000 0.000 1.329
6 18.00 1500.00 162 307 1.520 10000.000 0.000 1.329
7 21.00 1500.00 170 266 1.520 10000.000 0.000 1.329
8 24.00 1500.00 152 297 1.520 10000.000 0.000 1.329
9 27.00 1500.00 158 320 1.520 10000.000 0.000 1.329
10 30.00 1500.00 157 319 1.520 10000.000 0.000 1.329
11 33.00 1500.00 168 302 1.520 10000.000 0.000 1.329
12 36.00 1500.00 163 310 1.520 10000.000 0.000 1.329
13 39.00 1500.00 144 339 1.520 10000.000 0.000 1.329
14 42.00 1500.00 167 274 1.520 10000.000 0.000 1.329
15 45.00 1500.00 155 289 1.520 10000.000 0.000 1.329
16 48.00 1500.00 168 331 1.520 10000.000 0.000 1.329
17 51.00 1500.00 167 282 1.520 10000.000 0.000 1.329
18 54.00 1500.00 161 279 1.520 10000.000 0.000 1.329
19 57.00 1500.00 178 300 1.520 10000.000 0.000 1.329
20 60.00 1500.00 146 306 1.520 10000.000 0.000 1.329
21 63.00 1500.00 160 273 1.520 10000.000 0.000 1.329
22 66.00 1500.00 163 294 1.520 10000.000 0.000 1.329
23 69.00 1500.00 151 295 1.520 10000.000 0.000 1.329
24 72.00 1500.00 147 339 1.520 10000.000 0.000 1.329
25 75.00 1500.00 175 298 1.520 10000.000 0.000 1.329
26 78.00 1500.00 154 277 1.520 10000.000 0.000 1.329
27 81.00 1500.00 148 311 1.520 10000.000 0.000 1.329
28 84.00 1500.00 166 319 1.520 10000.000 0.000 1.329
29 87.00 1500.00 164 309 1.520 10000.000 0.000 1.329
30 90.00 1500.00 165 307 1.520 10000.000 0.000 1.329
31 93.00 1500.00 150 280 1.520 10000.000 0.000 1.329
32 96.00 1500.00 148 309 1.520 10000.000 0.000 1.329
33 99.00 1500.00 138 345 1.520 10000.000 0.000 1.329
34 102.00 1500.00 168 319 1.520 10000.000 0.000 1.329
35 105.00 1500.00 157 295 1.520 10000.000 0.000 1.329
36 108.00 1500.00 179 307 1.520 10000.000 0.000 1.329
37 111.00 1500.00 162 284 1.520 10000.000 0.000 1.329
38 114.00 1500.00 171 282 1.520 10000.000 0.000 1.329
39 117.00 1500.00 153 347 1.520 10000.000 0.000 1.329
40 120.00 1500.00 180 303 1.520 10000.000 0.000 1.329
41 123.00 1500.00 157 280 1.520 10000.000 0.000 1.329
42 126.00 1500.00 165 283 1.520 10000.000 0.000 1.329
43 129.00 1500.00 170 295 1.520 10000.000 0.000 1.329
44 132.00 1500.00 157 307 1.520 10000.000 0.000 1.329
45 135.00 1500.00 177 273 1.520 10000.000 0.000 1.329
46 138.00 1500.00 152 281 1.520 10000.000 0.000 1.329
47 141.00 1500.00 160 294 1.520 10000.000 0.000 1.329
48 144.00 1500.00 161 271 1.520 10000.000 0.000 1.329
49 147.00 1500.00 154 330 1.520 10000.000 0.000 1.329
50 150.00 1500.00 147 319 1.520 10000.000 0.000 1.329
51 153.00 1500.00 177 328 1.520 10000.000 0.000 1.329
52 156.00 1500.00 144 302 1.520 10000.000 0.000 1.329
53 159.00 1500.00 143 302 1.520 10000.000 0.000 1.329
54 162.00 1500.00 171 294 1.520 10000.000 0.000 1.329
55 165.00 1500.00 153 319 1.520 10000.000 0.000 1.329
56 168.00 1500.00 147 291 1.520 10000.000 0.000 1.329
57 171.00 1500.00 151 333 1.520 10000.000 0.000 1.329
58 174.00 1500.00 165 324 1.520 10000.000 0.000 1.329
59 177.00 1500.00 135 299 1.520 10000.000 0.000 1.329
60 180.00 1500.00 175 313 1.520 10000.000 0.000 1.329
61 183.00 1500.00 162 278 1.520 10000.000 0.000 1.329
62 186.00 1500.00 156 312 1.520 10000.000 0.000 1.329
63 189.00 1500.00 141 291 1.520 10000.000 0.000 1.329
64 192.00 1500.00 175 288 1.520 10000.000 0.000 1.329
65 195.00 1500.00 149 325 1.520 10000.000 0.000 1.329
66 198.00 1500.00 146 290 1.520 10000.000 0.000 1.329
67 201.00 1500.00 169 309 1.520 10000.000 0.000 1.329
68 204.00 1500.00 188 317 1.520 10000.000 0.000 1.329
69 207.00 1500.00 149 297 1.520 10000.000 0.000 1.329
70 210.00 1500.00 164 331 1.520 10000.000 0.000 1.329
71 213.00 1500.00 159 328 1.520 10000.000 0.000 1.329
72 216.00 1500.00 174 341 1.520 10000.000 0.000 1.329
73 219.00 1500.00 185 293 1.520 10000.000 0.000 1.329
74 222.00 1500.00 171 296 1.520 10000.000 0.000 1.329
75 225.00 1500.00 154 290 1.520 10000.000 0.000 1.329
76 228.00 1500.00 169 326 1.520 10000.000 0.000 1.329
77 231.00 1500.00 146 299 1.520 10000.000 0.000 1.329
78 234.00 1500.00 152 300 1.520 10000.000 0.000 1.329
79 237.00 1500.00 152 309 1.520 10000.000 0.000 1.329
80 240.00 1500.00 164 267 1.520 10000.000 0.000 1.329
81 243.00 1500.00 160 335 1.520 10000.000 0.000 1.329
82 246.00 1500.00 157 303 1.520 10000.000 0.000 1.329
83 249.00 1500.00 148 318 1.520 10000.000 0.000 1.329
84 252.00 1500.00 150 299 1.520 10000.000 0.000 1.329
85 255.00 1500.00 162 255 1.520 10000.000 0.000 1.329
86 258.00 1500.00 165 260 1.520 10000.000 0.000 1.329
87 261.00 1500.00 147 297 1.520 10000.000 0.000 1.329
88 264.00 1500.00 156 271 1.520 10000.000 0.000 1.329
89 267.00 1500.00 141 302 1.520 10000.000 0.000 1.329
90 270.00 1500.00 171 288 1.520 10000.000 0.000 1.329
91 273.00 1500.00 167 289 1.520 10000.000 0.000 1.329
92 276.00 1500.00 133 320 1.520 10000.000 0.000 1.329
93 279.00 1500.00 166 326 1.520 10000.000 0.000 1.329
94 282.00 1500.00 158 300 1.520 10000.000 0.000 1.329
95 285.00 1500.00 152 302 1.520 10000.000 0.000 1.329
96 288.00 1500.00 149 306 1.520 10000.000 0.000 1.329
97 291.00 1500.00 158 304 1.520 10000.000 0.000 1.329
98 294.00 1500.00 161 312 1.520 10000.000 0.000 1.329
99 297.00 1500.00 147 299 1.520 10000.000 0.000 1.329
100 300.00 1500.00 155 313 1.520 10000.000 0.000 1.329
101 303.00 1500.00 215 351 1.520 10000.000 0.000 1.329
102 306.00 1500.00 157 303 1.520 10000.000 0.000 1.329
103 309.00 1500.00 140 299 1.520 10000.000 0.000 1.329
104 312.00 1500.00 176 344 1.520 10000.000 0.000 1.329
105 315.00 1500.00 151 336 1.520 10000.000 0.000 1.329
106 318.00 1500.00 172 298 1.520 10000.000 0.000 1.329
107 321.00 1500.00 152 327 1.520 10000.000 0.000 1.329
108 324.00 1500.00 178 326 1.520 10000.000 0.000 1.329
109 327.00 1500.00 181 304 1.520 10000.000 0.000 1.329
110 330.00 1500.00 156 303 1.520 10000.000 0.000 1.329
111 333.00 1500.00 154 317 1.520 10000.000 0.000 1.329
112 336.00 1500.00 186 309 1.520 10000.000 0.000 1.329
113 339.00 1500.00 139 330 1.520 10000.000 0.000 1.329
114 342.00 1500.00 168 320 1.520 10000.000 0.000 1.329
115 345.00 1500.00 143 300 1.520 10000.000 0.000 1.329
116 348.00 1500.00 164 295 1.520 10000.000 0.000 1.329
117 351.00 1500.00 185 293 1.520 10000.000 0.000 1.329
118 354.00 1500.00 175 310 1.520 10000.000 0.000 1.329
119 357.00 1500.00 160 325 1.520 10000.000 0.000 1.329
120 360.00 1500.00 198 334 1.520 10000.000 0.000 1.329
121 363.00 1500.00 157 291 1.520 10000.000 0.000 1.329
122 366.00 1500.00 172 273 1.520 10000.000 0.000 1.329
123 369.00 1500.00 148 308 1.520 10000.000 0.000 1.329
124 372.00 1500.00 160 306 1.520 10000.000 0.000 1.329
125 375.00 1500.00 154 262 1.520 10000.000 0.000 1.329
126 378.00 1500.00 167 302 1.520 10000.000 0.000 1.329
127 381.00 1500.00 166 300 1.520 10000.000 0.000 1.329
128 384.00 1500.00 171 308 1.520 10000.000 0.000 1.329
129 387.00 1500.00 154 335 1.520 10000.000 0.000 1.329
130 390.00 1500.00 183 326 1.520 10000.000 0.000 1.329
131 393.00 1500.00 164 279 1.520 10000.000 0.000 1.329
132 396.00 1500.00 169 272 1.520 10000.000 0.000 1.329
133 399.00 1500.00 154 312 1.520 10000.000 0.000 1.329
134 402.00 1500.00 123 313 1.520 10000.000 0.000 1.329
135 405.00 1500.00 167 297 1.520 10000.000 0.000 1.329
136 408.00 1500.00 180 295 1.520 10000.000 0.000 1.329
137 411.00 1500.00 173 289 1.520 10000.000 0.000 1.329
138 414.00 1500.00 150 340 1.520 10000.000 0.000 1.329
139 417.00 1500.00 161 315 1.520 10000.000 0.000 1.329
140 420.00 1500.00 153 315 1.520 10000.000 0.000 1.329
141 423.00 1500.00 165 298 1.520 10000.000 0.000 1.329
142 426.00 1500.00 149 324 1.520 10000.000 0.000 1.329
143 429.00 1500.00 160 297 1.520 10000.000 0.000 1.329
144 432.00 1500.00 162 337 1.520 10000.000 0.000 1.329
