# BinNR microsec tot-time (s)  O-Beam AUX Ampl(V) f(Hz) phase(deg) chi(pos)
0 0.00 1500.02 143 474 1.520 10000.000 0.000 -0.330
1 3.00 1500.02 268 873 1.520 10000.000 0.000 -0.330
2 6.00 1500.02 265 835 1.520 10000.000 0.000 -0.330
3 9.00 1500.02 290 823 1.520 10000.000 0.000 -0.330
4 12.00 1500.02 279 946 1.520 10000.000 0.000 -0.330
5 15.00 1500.02 306 853 1.520 10000.000 0.000 -0.330
6 18.00 1500.02 309 880 1.520 10000.000 0.000 -0.330
7 21.00 1500.02 273 843 1.520 10000.000 0.000 -0.330
8 24.00 1500.02 287 870 1.520 10000.000 0.000 -0.330
9 27.00 1500.02 302 847 1.520 10000.000 0.000 -0.330
10 30.00 1500.02 259 845 1.520 10000.000 0.000 -0.330
11 33.00 1500.02 277 881 1.520 10000.000 0.000 -0.330
12 36.00 1500.02 290 837 1.520 10000.000 0.000 -0.330
13 39.00 1500.02 286 881 1.520 10000.000 0.000 -0.330
14 42.00 1500.02 284 858 1.520 10000.000 0.000 -0.330
15 45.00 1500.02 280 889 1.520 10000.000 0.000 -0.330
16 48.00 1500.02 283 848 1.520 10000.000 0.000 -0.330
17 51.00 1500.02 275 846 1.520 10000.000 0.000 -0.330
18 54.00 1500.02 289 856 1.520 10000.000 0.000 -0.330
19 57.00 1500.02 291 839 1.520 10000.000 0.000 -0.330
20 60.00 1500.02 305 851 1.520 10000.000 0.000 -0.330
21 63.00 1500.02 324 835 1.520 10000.000 0.000 -0.330
22 66.00 1500.02 301 841 1.520 10000.000 0.000 -0.330
23 69.00 1500.02 312 850 1.520 10000.000 0.000 -0.330
24 72.00 1500.02 268 879 1.520 10000.000 0.000 -0.330
25 75.00 1500.02 275 830 1.520 10000.000 0.000 -0.330
26 78.00 1500.02 302 885 1.520 10000.000 0.000 -0.330
27 81.00 1500.02 285 852 1.520 10000.000 0.000 -0.330
28 84.00 1500.02 288 911 1.520 10000.000 0.000 -0.330
29 87.00 1500.02 289 889 1.520 10000.000 0.000 -0.330
30 90.00 1500.02 286 869 1.520 10000.000 0.000 -0.330
31 93.00 1500.02 277 799 1.520 10000.000 0.000 -0.330
32 96.00 1500.02 252 901 1.520 10000.000 0.000 -0.330
33 99.00 1500.02 299 843 1.520 10000.000 0.000 -0.330
34 102.00 1500.02 288 859 1.520 10000.000 0.000 -0.330
35 105.00 1500.02 305 846 1.520 10000.000 0.000 -0.330
36 108.00 1500.02 303 871 1.520 10000.000 0.000 -0.330
37 111.00 1500.02 313 849 1.520 10000.000 0.000 -0.330
38 114.00 1500.02 287 820 1.520 10000.000 0.000 -0.330
39 117.00 1500.02 269 858 1.520 10000.000 0.000 -0.330
40 120.00 1500.02 296 911 1.520 10000.000 0.000 -0.330
41 123.00 1500.02 281 869 1.520 10000.000 0.000 -0.330
42 126.00 1500.02 285 827 1.520 10000.000 0.000 -0.330
43 129.00 1500.02 288 853 1.520 10000.000 0.000 -0.330
44 132.00 1500.02 281 897 1.520 10000.000 0.000 -0.330
45 135.00 1500.02 283 767 1.520 10000.000 0.000 -0.330
46 138.00 1500.02 298 866 1.520 10000.000 0.000 -0.330
47 141.00 1500.02 268 797 1.520 10000.000 0.000 -0.330
48 144.00 1500.02 317 874 1.520 10000.000 0.000 -0.330
49 147.00 1500.02 286 841 1.520 10000.000 0.000 -0.330
50 150.00 1500.02 273 856 1.520 10000.000 0.000 -0.330
51 153.00 1500.02 289 857 1.520 10000.000 0.000 -0.330
52 156.00 1500.02 301 822 1.520 10000.000 0.000 -0.330
53 159.00 1500.02 267 860 1.520 10000.000 0.000 -0.330
54 162.00 1500.02 300 839 1.520 10000.000 0.000 -0.330
55 165.00 1500.02 291 853 1.520 10000.000 0.000 -0.330
56 168.00 1500.02 276 878 1.520 10000.000 0.000 -0.330
57 171.00 1500.02 283 845 1.520 10000.000 0.000 -0.330
58 174.00 1500.02 287 847 1.520 10000.000 0.000 -0.330
59 177.00 1500.02 307 888 1.520 10000.000 0.000 -0.330
60 180.00 1500.02 282 939 1.520 10000.000 0.000 -0.330
61 183.00 1500.02 279 858 1.520 10000.000 0.000 -0.330
62 186.00 1500.02 286 902 1.520 10000.000 0.000 -0.330
63 189.00 1500.02 307 859 1.520 10000.000 0.000 -0.330
64 192.00 1500.02 295 825 1.520 10000.000 0.000 -0.330
65 195.00 1500.02 280 907 1.520 10000.000 0.000 -0.330
66 198.00 1500.02 311 848 1.520 10000.000 0.000 -0.330
67 201.00 1500.02 273 808 1.520 10000.000 0.000 -0.330
68 204.00 1500.02 276 858 1.520 10000.000 0.000 -0.330
69 207.00 1500.02 300 837 1.520 10000.000 0.000 -0.330
70 210.00 1500.02 267 903 1.520 10000.000 0.000 -0.330
71 213.00 1500.02 283 862 1.520 10000.000 0.000 -0.330
72 216.00 1500.02 315 861 1.520 10000.000 0.000 -0.330
73 219.00 1500.02 309 831 1.520 10000.000 0.000 -0.330
74 222.00 1500.02 286 852 1.520 10000.000 0.000 -0.330
75 225.00 1500.02 298 887 1.520 10000.000 0.000 -0.330
76 228.00 1500.02 283 899 1.520 10000.000 0.000 -0.330
77 231.00 1500.02 298 879 1.520 10000.000 0.000 -0.330
78 234.00 1500.02 282 859 1.520 10000.000 0.000 -0.330
79 237.00 1500.02 282 829 1.520 10000.000 0.000 -0.330
80 240.00 1500.02 311 825 1.520 10000.000 0.000 -0.330
81 243.00 1500.02 266 858 1.520 10000.000 0.000 -0.330
82 246.00 1500.02 266 878 1.520 10000.000 0.000 -0.330
83 249.00 1500.02 288 871 1.520 10000.000 0.000 -0.330
84 252.00 1500.02 306 874 1.520 10000.000 0.000 -0.330
85 255.00 1500.02 279 815 1.520 10000.000 0.000 -0.330
86 258.00 1500.02 287 892 1.520 10000.000 0.000 -0.330
87 261.00 1500.02 277 867 1.520 10000.000 0.000 -0.330
88 264.00 1500.02 299 841 1.520 10000.000 0.000 -0.330
89 267.00 1500.02 295 838 1.520 10000.000 0.000 -0.330
90 270.00 1500.02 301 860 1.520 10000.000 0.000 -0.330
91 273.00 1500.02 295 817 1.520 10000.000 0.000 -0.330
92 276.00 1500.02 292 873 1.520 10000.000 0.000 -0.330
93 279.00 1500.02 311 859 1.520 10000.000 0.000 -0.330
94 282.00 1500.02 260 888 1.520 10000.000 0.000 -0.330
95 285.00 1500.02 281 798 1.520 10000.000 0.000 -0.330
96 288.00 1500.02 316 846 1.520 10000.000 0.000 -0.330
97 291.00 1500.02 285 848 1.520 10000.000 0.000 -0.330
98 294.00 1500.02 277 862 1.520 10000.000 0.000 -0.330
99 297.00 1500.02 291 837 1.520 10000.000 0.000 -0.330
100 300.00 1500.02 294 890 1.520 10000.000 0.000 -0.330
101 303.00 1500.02 310 856 1.520 10000.000 0.000 -0.330
102 306.00 1500.02 302 876 1.520 10000.000 0.000 -0.330
103 309.00 1500.02 287 863 1.520 10000.000 0.000 -0.330
104 312.00 1500.02 309 865 1.520 10000.000 0.000 -0.330
105 315.00 1500.02 295 903 1.520 10000.000 0.000 -0.330
106 318.00 1500.02 297 825 1.520 10000.000 0.000 -0.330
107 321.00 1500.02 308 839 1.520 10000.000 0.000 -0.330
108 324.00 1500.02 293 829 1.520 10000.000 0.000 -0.330
109 327.00 1500.02 305 861 1.520 10000.000 0.000 -0.330
110 330.00 1500.02 305 892 1.520 10000.000 0.000 -0.330
111 333.00 1500.02 275 862 1.520 10000.000 0.000 -0.330
112 336.00 1500.02 271 852 1.520 10000.000 0.000 -0.330
113 339.00 1500.02 285 833 1.520 10000.000 0.000 -0.330
114 342.00 1500.02 267 883 1.520 10000.000 0.000 -0.330
115 345.00 1500.02 296 830 1.520 10000.000 0.000 -0.330
116 348.00 1500.02 276 866 1.520 10000.000 0.000 -0.330
117 351.00 1500.02 275 871 1.520 10000.000 0.000 -0.330
118 354.00 1500.02 289 839 1.520 10000.000 0.000 -0.330
119 357.00 1500.02 269 895 1.520 10000.000 0.000 -0.330
120 360.00 1500.02 282 852 1.520 10000.000 0.000 -0.330
121 363.00 1500.02 308 865 1.520 10000.000 0.000 -0.330
122 366.00 1500.02 286 873 1.520 10000.000 0.000 -0.330
123 369.00 1500.02 279 889 1.520 10000.000 0.000 -0.330
124 372.00 1500.02 304 840 1.520 10000.000 0.000 -0.330
125 375.00 1500.02 295 845 1.520 10000.000 0.000 -0.330
126 378.00 1500.02 311 775 1.520 10000.000 0.000 -0.330
127 381.00 1500.02 301 833 1.520 10000.000 0.000 -0.330
128 384.00 1500.02 311 872 1.520 10000.000 0.000 -0.330
129 387.00 1500.02 319 861 1.520 10000.000 0.000 -0.330
130 390.00 1500.02 294 854 1.520 10000.000 0.000 -0.330
131 393.00 1500.02 261 907 1.520 10000.000 0.000 -0.330
132 396.00 1500.02 243 910 1.520 10000.000 0.000 -0.330
133 399.00 1500.02 269 855 1.520 10000.000 0.000 -0.330
134 402.00 1500.02 292 866 1.520 10000.000 0.000 -0.330
135 405.00 1500.02 302 835 1.520 10000.000 0.000 -0.330
136 408.00 1500.02 283 832 1.520 10000.000 0.000 -0.330
137 411.00 1500.02 280 892 1.520 10000.000 0.000 -0.330
138 414.00 1500.02 305 876 1.520 10000.000 0.000 -0.330
139 417.00 1500.02 268 848 1.520 10000.000 0.000 -0.330
140 420.00 1500.02 262 867 1.520 10000.000 0.000 -0.330
141 423.00 1500.02 297 885 1.520 10000.000 0.000 -0.330
142 426.00 1500.02 280 838 1.520 10000.000 0.000 -0.330
143 429.00 1500.02 261 861 1.520 10000.000 0.000 -0.330
144 432.00 1500.02 289 932 1.520 10000.000 0.000 -0.330
