# BinNR microsec tot-time (s)  O-Beam AUX Ampl(V) f(Hz) phase(deg) chi(pos)
0 0.00 1500.01 76 115 1.520 10000.000 0.000 -0.824
1 3.00 1500.01 167 249 1.520 10000.000 0.000 -0.824
2 6.00 1500.01 144 256 1.520 10000.000 0.000 -0.824
3 9.00 1500.01 146 236 1.520 10000.000 0.000 -0.824
4 12.00 1500.01 154 232 1.520 10000.000 0.000 -0.824
5 15.00 1500.01 153 237 1.520 10000.000 0.000 -0.824
6 18.00 1500.01 156 242 1.520 10000.000 0.000 -0.824
7 21.00 1500.01 157 242 1.520 10000.000 0.000 -0.824
8 24.00 1500.01 175 254 1.520 10000.000 0.000 -0.824
9 27.00 1500.01 160 217 1.520 10000.000 0.000 -0.824
10 30.00 1500.01 165 234 1.520 10000.000 0.000 -0.824
11 33.00 1500.01 141 251 1.520 10000.000 0.000 -0.824
12 36.00 1500.01 138 223 1.520 10000.000 0.000 -0.824
13 39.00 1500.01 127 268 1.520 10000.000 0.000 -0.824
14 42.00 1500.01 162 240 1.520 10000.000 0.000 -0.824
15 45.00 1500.01 154 241 1.520 10000.000 0.000 -0.824
16 48.00 1500.01 148 257 1.520 10000.000 0.000 -0.824
17 51.00 1500.01 166 215 1.520 10000.000 0.000 -0.824
18 54.00 1500.01 146 190 1.520 10000.000 0.000 -0.824
19 57.00 1500.01 172 226 1.520 10000.000 0.000 -0.824
20 60.00 1500.01 150 254 1.520 10000.000 0.000 -0.824
21 63.00 1500.01 157 243 1.520 10000.000 0.000 -0.824
22 66.00 1500.01 162 272 1.520 10000.000 0.000 -0.824
23 69.00 1500.01 167 240 1.520 10000.000 0.000 -0.824
24 72.00 1500.01 164 249 1.520 10000.000 0.000 -0.824
25 75.00 1500.01 147 267 1.520 10000.000 0.000 -0.824
26 78.00 1500.01 151 226 1.520 10000.000 0.000 -0.824
27 81.00 1500.01 159 251 1.520 10000.000 0.000 -0.824
28 84.00 1500.01 160 237 1.520 10000.000 0.000 -0.824
29 87.00 1500.01 153 240 1.520 10000.000 0.000 -0.824
30 90.00 1500.01 141 239 1.520 10000.000 0.000 -0.824
31 93.00 1500.01 155 235 1.520 10000.000 0.000 -0.824
32 96.00 1500.01 147 247 1.520 10000.000 0.000 -0.824
33 99.00 1500.01 137 264 1.520 10000.000 0.000 -0.824
34 102.00 1500.01 136 243 1.520 10000.000 0.000 -0.824
35 105.00 1500.01 157 218 1.520 10000.000 0.000 -0.824
36 108.00 1500.01 152 227 1.520 10000.000 0.000 -0.824
37 111.00 1500.01 170 238 1.520 10000.000 0.000 -0.824
38 114.00 1500.01 166 244 1.520 10000.000 0.000 -0.824
39 117.00 1500.01 165 232 1.520 10000.000 0.000 -0.824
40 120.00 1500.01 166 230 1.520 10000.000 0.000 -0.824
41 123.00 1500.01 142 249 1.520 10000.000 0.000 -0.824
42 126.00 1500.01 160 260 1.520 10000.000 0.000 -0.824
43 129.00 1500.01 125 248 1.520 10000.000 0.000 -0.824
44 132.00 1500.01 153 219 1.520 10000.000 0.000 -0.824
45 135.00 1500.01 158 244 1.520 10000.000 0.000 -0.824
46 138.00 1500.01 168 230 1.520 10000.000 0.000 -0.824
47 141.00 1500.01 155 239 1.520 10000.000 0.000 -0.824
48 144.00 1500.01 144 296 1.520 10000.000 0.000 -0.824
49 147.00 1500.01 138 228 1.520 10000.000 0.000 -0.824
50 150.00 1500.01 147 232 1.520 10000.000 0.000 -0.824
51 153.00 1500.01 168 258 1.520 10000.000 0.000 -0.824
52 156.00 1500.01 143 244 1.520 10000.000 0.000 -0.824
53 159.00 1500.01 179 227 1.520 10000.000 0.000 -0.824
54 162.00 1500.01 182 232 1.520 10000.000 0.000 -0.824
55 165.00 1500.01 161 239 1.520 10000.000 0.000 -0.824
56 168.00 1500.01 165 243 1.520 10000.000 0.000 -0.824
57 171.00 1500.01 143 225 1.520 10000.000 0.000 -0.824
58 174.00 1500.01 161 240 1.520 10000.000 0.000 -0.824
59 177.00 1500.01 167 197 1.520 10000.000 0.000 -0.824
60 180.00 1500.01 162 243 1.520 10000.000 0.000 -0.824
61 183.00 1500.01 137 252 1.520 10000.000 0.000 -0.824
62 186.00 1500.01 156 249 1.520 10000.000 0.000 -0.824
63 189.00 1500.01 147 233 1.520 10000.000 0.000 -0.824
64 192.00 1500.01 158 251 1.520 10000.000 0.000 -0.824
65 195.00 1500.01 154 255 1.520 10000.000 0.000 -0.824
66 198.00 1500.01 137 228 1.520 10000.000 0.000 -0.824
67 201.00 1500.01 136 234 1.520 10000.000 0.000 -0.824
68 204.00 1500.01 159 220 1.520 10000.000 0.000 -0.824
69 207.00 1500.01 161 229 1.520 10000.000 0.000 -0.824
70 210.00 1500.01 151 216 1.520 10000.000 0.000 -0.824
71 213.00 1500.01 166 221 1.520 10000.000 0.000 -0.824
72 216.00 1500.01 162 233 1.520 10000.000 0.000 -0.824
73 219.00 1500.01 159 209 1.520 10000.000 0.000 -0.824
74 222.00 1500.01 139 191 1.520 10000.000 0.000 -0.824
75 225.00 1500.01 159 242 1.520 10000.000 0.000 -0.824
76 228.00 1500.01 134 251 1.520 10000.000 0.000 -0.824
77 231.00 1500.01 168 241 1.520 10000.000 0.000 -0.824
78 234.00 1500.01 146 257 1.520 10000.000 0.000 -0.824
79 237.00 1500.01 163 252 1.520 10000.000 0.000 -0.824
80 240.00 1500.01 165 253 1.520 10000.000 0.000 -0.824
81 243.00 1500.01 160 239 1.520 10000.000 0.000 -0.824
82 246.00 1500.01 157 231 1.520 10000.000 0.000 -0.824
83 249.00 1500.01 146 220 1.520 10000.000 0.000 -0.824
84 252.00 1500.01 138 253 1.520 10000.000 0.000 -0.824
85 255.00 1500.01 174 259 1.520 10000.000 0.000 -0.824
86 258.00 1500.01 160 233 1.520 10000.000 0.000 -0.824
87 261.00 1500.01 147 263 1.520 10000.000 0.000 -0.824
88 264.00 1500.01 129 210 1.520 10000.000 0.000 -0.824
89 267.00 1500.01 165 249 1.520 10000.000 0.000 -0.824
90 270.00 1500.01 167 261 1.520 10000.000 0.000 -0.824
91 273.00 1500.01 185 224 1.520 10000.000 0.000 -0.824
92 276.00 1500.01 138 246 1.520 10000.000 0.000 -0.824
93 279.00 1500.01 142 251 1.520 10000.000 0.000 -0.824
94 282.00 1500.01 166 232 1.520 10000.000 0.000 -0.824
95 285.00 1500.01 172 208 1.520 10000.000 0.000 -0.824
96 288.00 1500.01 167 238 1.520 10000.000 0.000 -0.824
97 291.00 1500.01 129 234 1.520 10000.000 0.000 -0.824
98 294.00 1500.01 155 236 1.520 10000.000 0.000 -0.824
99 297.00 1500.01 128 233 1.520 10000.000 0.000 -0.824
100 300.00 1500.01 172 240 1.520 10000.000 0.000 -0.824
101 303.00 1500.01 151 241 1.520 10000.000 0.000 -0.824
102 306.00 1500.01 161 258 1.520 10000.000 0.000 -0.824
103 309.00 1500.01 151 228 1.520 10000.000 0.000 -0.824
104 312.00 1500.01 146 241 1.520 10000.000 0.000 -0.824
105 315.00 1500.01 137 237 1.520 10000.000 0.000 -0.824
106 318.00 1500.01 133 255 1.520 10000.000 0.000 -0.824
107 321.00 1500.01 177 247 1.520 10000.000 0.000 -0.824
108 324.00 1500.01 152 244 1.520 10000.000 0.000 -0.824
109 327.00 1500.01 169 248 1.520 10000.000 0.000 -0.824
110 330.00 1500.01 164 257 1.520 10000.000 0.000 -0.824
111 333.00 1500.01 146 250 1.520 10000.000 0.000 -0.824
112 336.00 1500.01 154 205 1.520 10000.000 0.000 -0.824
113 339.00 1500.01 147 232 1.520 10000.000 0.000 -0.824
114 342.00 1500.01 178 253 1.520 10000.000 0.000 -0.824
115 345.00 1500.01 158 226 1.520 10000.000 0.000 -0.824
116 348.00 1500.01 136 230 1.520 10000.000 0.000 -0.824
117 351.00 1500.01 160 241 1.520 10000.000 0.000 -0.824
118 354.00 1500.01 156 236 1.520 10000.000 0.000 -0.824
119 357.00 1500.01 138 233 1.520 10000.000 0.000 -0.824
120 360.00 1500.01 150 256 1.520 10000.000 0.000 -0.824
121 363.00 1500.01 159 236 1.520 10000.000 0.000 -0.824
122 366.00 1500.01 154 238 1.520 10000.000 0.000 -0.824
123 369.00 1500.01 142 231 1.520 10000.000 0.000 -0.824
124 372.00 1500.01 160 245 1.520 10000.000 0.000 -0.824
125 375.00 1500.01 151 241 1.520 10000.000 0.000 -0.824
126 378.00 1500.01 167 216 1.520 10000.000 0.000 -0.824
127 381.00 1500.01 166 226 1.520 10000.000 0.000 -0.824
128 384.00 1500.01 153 240 1.520 10000.000 0.000 -0.824
129 387.00 1500.01 164 228 1.520 10000.000 0.000 -0.824
130 390.00 1500.01 158 258 1.520 10000.000 0.000 -0.824
131 393.00 1500.01 168 254 1.520 10000.000 0.000 -0.824
132 396.00 1500.01 159 226 1.520 10000.000 0.000 -0.824
133 399.00 1500.01 157 218 1.520 10000.000 0.000 -0.824
134 402.00 1500.01 146 254 1.520 10000.000 0.000 -0.824
135 405.00 1500.01 126 233 1.520 10000.000 0.000 -0.824
136 408.00 1500.01 139 256 1.520 10000.000 0.000 -0.824
137 411.00 1500.01 148 208 1.520 10000.000 0.000 -0.824
138 414.00 1500.01 167 259 1.520 10000.000 0.000 -0.824
139 417.00 1500.01 174 249 1.520 10000.000 0.000 -0.824
140 420.00 1500.01 159 235 1.520 10000.000 0.000 -0.824
141 423.00 1500.01 149 226 1.520 10000.000 0.000 -0.824
142 426.00 1500.01 177 245 1.520 10000.000 0.000 -0.824
143 429.00 1500.01 167 255 1.520 10000.000 0.000 -0.824
144 432.00 1500.01 147 240 1.520 10000.000 0.000 -0.824
