# BinNR microsec tot-time (s)  O-Beam AUX Ampl(V) f(Hz) phase(deg) chi(pos)
0 0.00 1500.03 91 178 1.520 10000.000 0.000 -0.681
1 3.00 1500.03 172 415 1.520 10000.000 0.000 -0.681
2 6.00 1500.03 194 434 1.520 10000.000 0.000 -0.681
3 9.00 1500.03 169 399 1.520 10000.000 0.000 -0.681
4 12.00 1500.03 167 402 1.520 10000.000 0.000 -0.681
5 15.00 1500.03 194 369 1.520 10000.000 0.000 -0.681
6 18.00 1500.03 208 410 1.520 10000.000 0.000 -0.681
7 21.00 1500.03 165 395 1.520 10000.000 0.000 -0.681
8 24.00 1500.03 184 354 1.520 10000.000 0.000 -0.681
9 27.00 1500.03 184 387 1.520 10000.000 0.000 -0.681
10 30.00 1500.03 188 392 1.520 10000.000 0.000 -0.681
11 33.00 1500.03 203 410 1.520 10000.000 0.000 -0.681
12 36.00 1500.03 180 369 1.520 10000.000 0.000 -0.681
13 39.00 1500.03 168 369 1.520 10000.000 0.000 -0.681
14 42.00 1500.03 170 363 1.520 10000.000 0.000 -0.681
15 45.00 1500.03 165 377 1.520 10000.000 0.000 -0.681
16 48.00 1500.03 190 370 1.520 10000.000 0.000 -0.681
17 51.00 1500.03 166 386 1.520 10000.000 0.000 -0.681
18 54.00 1500.03 185 368 1.520 10000.000 0.000 -0.681
19 57.00 1500.03 177 354 1.520 10000.000 0.000 -0.681
20 60.00 1500.03 193 406 1.520 10000.000 0.000 -0.681
21 63.00 1500.03 181 389 1.520 10000.000 0.000 -0.681
22 66.00 1500.03 176 397 1.520 10000.000 0.000 -0.681
23 69.00 1500.03 149 386 1.520 10000.000 0.000 -0.681
24 72.00 1500.03 196 391 1.520 10000.000 0.000 -0.681
25 75.00 1500.03 160 374 1.520 10000.000 0.000 -0.681
26 78.00 1500.03 176 386 1.520 10000.000 0.000 -0.681
27 81.00 1500.03 172 334 1.520 10000.000 0.000 -0.681
28 84.00 1500.03 165 373 1.520 10000.000 0.000 -0.681
29 87.00 1500.03 207 389 1.520 10000.000 0.000 -0.681
30 90.00 1500.03 170 387 1.520 10000.000 0.000 -0.681
31 93.00 1500.03 179 367 1.520 10000.000 0.000 -0.681
32 96.00 1500.03 164 402 1.520 10000.000 0.000 -0.681
33 99.00 1500.03 181 349 1.520 10000.000 0.000 -0.681
34 102.00 1500.03 161 402 1.520 10000.000 0.000 -0.681
35 105.00 1500.03 164 393 1.520 10000.000 0.000 -0.681
36 108.00 1500.03 183 363 1.520 10000.000 0.000 -0.681
37 111.00 1500.03 190 388 1.520 10000.000 0.000 -0.681
38 114.00 1500.03 192 400 1.520 10000.000 0.000 -0.681
39 117.00 1500.03 162 367 1.520 10000.000 0.000 -0.681
40 120.00 1500.03 178 358 1.520 10000.000 0.000 -0.681
41 123.00 1500.03 187 377 1.520 10000.000 0.000 -0.681
42 126.00 1500.03 165 371 1.520 10000.000 0.000 -0.681
43 129.00 1500.03 190 377 1.520 10000.000 0.000 -0.681
44 132.00 1500.03 152 397 1.520 10000.000 0.000 -0.681
45 135.00 1500.03 181 417 1.520 10000.000 0.000 -0.681
46 138.00 1500.03 170 392 1.520 10000.000 0.000 -0.681
47 141.00 1500.03 168 382 1.520 10000.000 0.000 -0.681
48 144.00 1500.03 197 398 1.520 10000.000 0.000 -0.681
49 147.00 1500.03 179 381 1.520 10000.000 0.000 -0.681
50 150.00 1500.03 191 369 1.520 10000.000 0.000 -0.681
51 153.00 1500.03 187 384 1.520 10000.000 0.000 -0.681
52 156.00 1500.03 185 392 1.520 10000.000 0.000 -0.681
53 159.00 1500.03 192 406 1.520 10000.000 0.000 -0.681
54 162.00 1500.03 156 389 1.520 10000.000 0.000 -0.681
55 165.00 1500.03 184 376 1.520 10000.000 0.000 -0.681
56 168.00 1500.03 179 366 1.520 10000.000 0.000 -0.681
57 171.00 1500.03 165 390 1.520 10000.000 0.000 -0.681
58 174.00 1500.03 160 417 1.520 10000.000 0.000 -0.681
59 177.00 1500.03 184 385 1.520 10000.000 0.000 -0.681
60 180.00 1500.03 169 378 1.520 10000.000 0.000 -0.681
61 183.00 1500.03 166 389 1.520 10000.000 0.000 -0.681
62 186.00 1500.03 176 394 1.520 10000.000 0.000 -0.681
63 189.00 1500.03 176 374 1.520 10000.000 0.000 -0.681
64 192.00 1500.03 164 383 1.520 10000.000 0.000 -0.681
65 195.00 1500.03 185 382 1.520 10000.000 0.000 -0.681
66 198.00 1500.03 176 376 1.520 10000.000 0.000 -0.681
67 201.00 1500.03 158 392 1.520 10000.000 0.000 -0.681
68 204.00 1500.03 168 384 1.520 10000.000 0.000 -0.681
69 207.00 1500.03 193 398 1.520 10000.000 0.000 -0.681
70 210.00 1500.03 170 396 1.520 10000.000 0.000 -0.681
71 213.00 1500.03 193 380 1.520 10000.000 0.000 -0.681
72 216.00 1500.03 156 371 1.520 10000.000 0.000 -0.681
73 219.00 1500.03 174 394 1.520 10000.000 0.000 -0.681
74 222.00 1500.03 189 392 1.520 10000.000 0.000 -0.681
75 225.00 1500.03 176 407 1.520 10000.000 0.000 -0.681
76 228.00 1500.03 165 393 1.520 10000.000 0.000 -0.681
77 231.00 1500.03 185 359 1.520 10000.000 0.000 -0.681
78 234.00 1500.03 180 382 1.520 10000.000 0.000 -0.681
79 237.00 1500.03 193 368 1.520 10000.000 0.000 -0.681
80 240.00 1500.03 191 413 1.520 10000.000 0.000 -0.681
81 243.00 1500.03 164 379 1.520 10000.000 0.000 -0.681
82 246.00 1500.03 197 380 1.520 10000.000 0.000 -0.681
83 249.00 1500.03 174 400 1.520 10000.000 0.000 -0.681
84 252.00 1500.03 191 401 1.520 10000.000 0.000 -0.681
85 255.00 1500.03 177 358 1.520 10000.000 0.000 -0.681
86 258.00 1500.03 177 370 1.520 10000.000 0.000 -0.681
87 261.00 1500.03 172 341 1.520 10000.000 0.000 -0.681
88 264.00 1500.03 183 394 1.520 10000.000 0.000 -0.681
89 267.00 1500.03 171 397 1.520 10000.000 0.000 -0.681
90 270.00 1500.03 175 374 1.520 10000.000 0.000 -0.681
91 273.00 1500.03 165 387 1.520 10000.000 0.000 -0.681
92 276.00 1500.03 185 391 1.520 10000.000 0.000 -0.681
93 279.00 1500.03 184 381 1.520 10000.000 0.000 -0.681
94 282.00 1500.03 167 378 1.520 10000.000 0.000 -0.681
95 285.00 1500.03 183 383 1.520 10000.000 0.000 -0.681
96 288.00 1500.03 178 387 1.520 10000.000 0.000 -0.681
97 291.00 1500.03 192 382 1.520 10000.000 0.000 -0.681
98 294.00 1500.03 173 367 1.520 10000.000 0.000 -0.681
99 297.00 1500.03 172 392 1.520 10000.000 0.000 -0.681
100 300.00 1500.03 167 344 1.520 10000.000 0.000 -0.681
101 303.00 1500.03 187 387 1.520 10000.000 0.000 -0.681
102 306.00 1500.03 175 397 1.520 10000.000 0.000 -0.681
103 309.00 1500.03 140 389 1.520 10000.000 0.000 -0.681
104 312.00 1500.03 195 415 1.520 10000.000 0.000 -0.681
105 315.00 1500.03 194 410 1.520 10000.000 0.000 -0.681
106 318.00 1500.03 172 394 1.520 10000.000 0.000 -0.681
107 321.00 1500.03 166 422 1.520 10000.000 0.000 -0.681
108 324.00 1500.03 173 369 1.520 10000.000 0.000 -0.681
109 327.00 1500.03 168 385 1.520 10000.000 0.000 -0.681
110 330.00 1500.03 180 368 1.520 10000.000 0.000 -0.681
111 333.00 1500.03 179 397 1.520 10000.000 0.000 -0.681
112 336.00 1500.03 208 399 1.520 10000.000 0.000 -0.681
113 339.00 1500.03 188 381 1.520 10000.000 0.000 -0.681
114 342.00 1500.03 179 430 1.520 10000.000 0.000 -0.681
115 345.00 1500.03 151 367 1.520 10000.000 0.000 -0.681
116 348.00 1500.03 162 386 1.520 10000.000 0.000 -0.681
117 351.00 1500.03 192 339 1.520 10000.000 0.000 -0.681
118 354.00 1500.03 194 373 1.520 10000.000 0.000 -0.681
119 357.00 1500.03 158 404 1.520 10000.000 0.000 -0.681
120 360.00 1500.03 184 383 1.520 10000.000 0.000 -0.681
121 363.00 1500.03 195 382 1.520 10000.000 0.000 -0.681
122 366.00 1500.03 181 386 1.520 10000.000 0.000 -0.681
123 369.00 1500.03 201 408 1.520 10000.000 0.000 -0.681
124 372.00 1500.03 191 443 1.520 10000.000 0.000 -0.681
125 375.00 1500.03 166 343 1.520 10000.000 0.000 -0.681
126 378.00 1500.03 168 391 1.520 10000.000 0.000 -0.681
127 381.00 1500.03 201 396 1.520 10000.000 0.000 -0.681
128 384.00 1500.03 201 383 1.520 10000.000 0.000 -0.681
129 387.00 1500.03 202 378 1.520 10000.000 0.000 -0.681
130 390.00 1500.03 178 388 1.520 10000.000 0.000 -0.681
131 393.00 1500.03 168 376 1.520 10000.000 0.000 -0.681
132 396.00 1500.03 187 366 1.520 10000.000 0.000 -0.681
133 399.00 1500.03 156 355 1.520 10000.000 0.000 -0.681
134 402.00 1500.03 174 439 1.520 10000.000 0.000 -0.681
135 405.00 1500.03 173 384 1.520 10000.000 0.000 -0.681
136 408.00 1500.03 188 340 1.520 10000.000 0.000 -0.681
137 411.00 1500.03 185 377 1.520 10000.000 0.000 -0.681
138 414.00 1500.03 191 408 1.520 10000.000 0.000 -0.681
139 417.00 1500.03 180 400 1.520 10000.000 0.000 -0.681
140 420.00 1500.03 191 407 1.520 10000.000 0.000 -0.681
141 423.00 1500.03 167 387 1.520 10000.000 0.000 -0.681
142 426.00 1500.03 187 410 1.520 10000.000 0.000 -0.681
143 429.00 1500.03 160 363 1.520 10000.000 0.000 -0.681
144 432.00 1500.03 202 395 1.520 10000.000 0.000 -0.681
