# BinNR microsec tot-time (s)  O-Beam H-beam AUX Ampl(V) f(Hz) phase(deg) chi(pos)
0 0.00 1200.00 73 1327 293 0.000 2.102 3000.000 1.362
1 25.00 1200.00 84 1002 478 0.000 2.102 3000.000 1.362
2 50.00 1200.00 100 687 598 0.000 2.102 3000.000 1.362
3 75.00 1200.00 101 615 552 0.000 2.102 3000.000 1.362
4 100.00 1200.00 51 587 563 0.000 2.102 3000.000 1.362
5 125.00 1200.00 94 623 534 0.000 2.102 3000.000 1.362
6 150.00 1200.00 196 635 440 0.000 2.102 3000.000 1.362
7 175.00 1200.00 275 840 238 0.000 2.102 3000.000 1.362
8 200.00 1200.00 302 1206 104 0.000 2.102 3000.000 1.362
9 225.00 1200.00 292 1314 147 0.000 2.102 3000.000 1.362
10 250.00 1200.00 297 1210 212 0.000 2.102 3000.000 1.362
11 275.00 1200.00 234 1117 166 0.000 2.102 3000.000 1.362
12 300.00 1200.00 143 1198 113 0.000 2.102 3000.000 1.362
13 325.00 1200.00 60 1311 175 0.000 2.102 3000.000 1.362
14 350.00 1200.00 73 1136 432 0.000 2.102 3000.000 1.362
15 375.00 1200.00 121 766 579 0.000 2.102 3000.000 1.362
16 400.00 1200.00 108 543 550 0.000 2.102 3000.000 1.362
17 425.00 1200.00 62 603 536 0.000 2.102 3000.000 1.362
18 450.00 1200.00 70 628 591 0.000 2.102 3000.000 1.362
19 475.00 1200.00 152 582 507 0.000 2.102 3000.000 1.362
20 500.00 1200.00 282 757 302 0.000 2.102 3000.000 1.362
21 525.00 1200.00 275 1079 127 0.000 2.102 3000.000 1.362
22 550.00 1200.00 282 1292 133 0.000 2.102 3000.000 1.362
23 575.00 1200.00 283 1284 211 0.000 2.102 3000.000 1.362
24 600.00 1200.00 267 1171 191 0.000 2.102 3000.000 1.362
25 625.00 1200.00 195 1196 104 0.000 2.102 3000.000 1.362
26 650.00 1200.00 94 1323 122 0.000 2.102 3000.000 1.362
27 675.00 1200.00 77 1219 356 0.000 2.102 3000.000 1.362
28 700.00 1200.00 97 860 575 0.000 2.102 3000.000 1.362
29 725.00 1200.00 126 577 549 0.000 2.102 3000.000 1.362
30 750.00 1200.00 82 589 525 0.000 2.102 3000.000 1.362
31 775.00 1200.00 65 687 525 0.000 2.102 3000.000 1.362
32 800.00 1200.00 148 645 575 0.000 2.102 3000.000 1.362
33 825.00 1200.00 241 704 399 0.000 2.102 3000.000 1.362
34 850.00 1200.00 297 974 141 0.000 2.102 3000.000 1.362
35 875.00 1200.00 302 1263 103 0.000 2.102 3000.000 1.362
36 900.00 1200.00 251 1214 175 0.000 2.102 3000.000 1.362
37 925.00 1200.00 334 1231 213 0.000 2.102 3000.000 1.362
38 950.00 1200.00 243 1118 136 0.000 2.102 3000.000 1.362
39 975.00 1200.00 108 1221 109 0.000 2.102 3000.000 1.362
