# BinNR microsec tot-time (s)  O-Beam H-beam AUX Ampl1(V) f1(Hz) phase1(deg) Ampl1(V) f1(Hz) phase1(deg) chi(pos)
0 0.00 2000.00 57 436 147 0.425 2000.000 0.000 0.425 3000.000 0.000 0.209
1 16.67 2000.00 44 428 131 0.425 2000.000 0.000 0.425 3000.000 0.000 0.209
2 33.33 2000.00 41 406 136 0.425 2000.000 0.000 0.425 3000.000 0.000 0.209
3 50.00 2000.00 53 411 127 0.425 2000.000 0.000 0.425 3000.000 0.000 0.209
4 66.67 2000.00 44 377 134 0.425 2000.000 0.000 0.425 3000.000 0.000 0.209
5 83.33 2000.00 53 385 117 0.425 2000.000 0.000 0.425 3000.000 0.000 0.209
6 100.00 2000.00 57 375 135 0.425 2000.000 0.000 0.425 3000.000 0.000 0.209
7 116.67 2000.00 46 373 137 0.425 2000.000 0.000 0.425 3000.000 0.000 0.209
8 133.33 2000.00 66 402 128 0.425 2000.000 0.000 0.425 3000.000 0.000 0.209
9 150.00 2000.00 69 412 141 0.425 2000.000 0.000 0.425 3000.000 0.000 0.209
10 166.67 2000.00 63 403 123 0.425 2000.000 0.000 0.425 3000.000 0.000 0.209
11 183.33 2000.00 49 404 146 0.425 2000.000 0.000 0.425 3000.000 0.000 0.209
12 200.00 2000.00 67 397 172 0.425 2000.000 0.000 0.425 3000.000 0.000 0.209
13 216.67 2000.00 50 397 176 0.425 2000.000 0.000 0.425 3000.000 0.000 0.209
14 233.33 2000.00 66 443 156 0.425 2000.000 0.000 0.425 3000.000 0.000 0.209
15 250.00 2000.00 63 409 137 0.425 2000.000 0.000 0.425 3000.000 0.000 0.209
16 266.67 2000.00 67 379 145 0.425 2000.000 0.000 0.425 3000.000 0.000 0.209
17 283.33 2000.00 62 444 151 0.425 2000.000 0.000 0.425 3000.000 0.000 0.209
18 300.00 2000.00 55 474 136 0.425 2000.000 0.000 0.425 3000.000 0.000 0.209
19 316.67 2000.00 62 460 115 0.425 2000.000 0.000 0.425 3000.000 0.000 0.209
20 333.33 2000.00 48 426 139 0.425 2000.000 0.000 0.425 3000.000 0.000 0.209
21 350.00 2000.00 57 404 129 0.425 2000.000 0.000 0.425 3000.000 0.000 0.209
22 366.67 2000.00 46 438 168 0.425 2000.000 0.000 0.425 3000.000 0.000 0.209
23 383.33 2000.00 41 367 145 0.425 2000.000 0.000 0.425 3000.000 0.000 0.209
24 400.00 2000.00 40 435 146 0.425 2000.000 0.000 0.425 3000.000 0.000 0.209
25 416.67 2000.00 35 426 122 0.425 2000.000 0.000 0.425 3000.000 0.000 0.209
26 433.33 2000.00 31 435 143 0.425 2000.000 0.000 0.425 3000.000 0.000 0.209
27 450.00 2000.00 36 383 147 0.425 2000.000 0.000 0.425 3000.000 0.000 0.209
28 466.67 2000.00 39 423 171 0.425 2000.000 0.000 0.425 3000.000 0.000 0.209
29 483.33 2000.00 42 424 158 0.425 2000.000 0.000 0.425 3000.000 0.000 0.209
30 500.00 2000.00 58 433 169 0.425 2000.000 0.000 0.425 3000.000 0.000 0.209
31 516.67 2000.00 64 445 166 0.425 2000.000 0.000 0.425 3000.000 0.000 0.209
32 533.33 2000.00 53 430 152 0.425 2000.000 0.000 0.425 3000.000 0.000 0.209
33 550.00 2000.00 66 416 147 0.425 2000.000 0.000 0.425 3000.000 0.000 0.209
34 566.67 2000.00 61 419 151 0.425 2000.000 0.000 0.425 3000.000 0.000 0.209
35 583.33 2000.00 53 435 142 0.425 2000.000 0.000 0.425 3000.000 0.000 0.209
36 600.00 2000.00 60 422 138 0.425 2000.000 0.000 0.425 3000.000 0.000 0.209
37 616.67 2000.00 57 413 133 0.425 2000.000 0.000 0.425 3000.000 0.000 0.209
38 633.33 2000.00 67 408 120 0.425 2000.000 0.000 0.425 3000.000 0.000 0.209
39 650.00 2000.00 60 420 109 0.425 2000.000 0.000 0.425 3000.000 0.000 0.209
40 666.67 2000.00 54 380 112 0.425 2000.000 0.000 0.425 3000.000 0.000 0.209
41 683.33 2000.00 58 356 120 0.425 2000.000 0.000 0.425 3000.000 0.000 0.209
42 700.00 2000.00 59 389 121 0.425 2000.000 0.000 0.425 3000.000 0.000 0.209
43 716.67 2000.00 57 371 115 0.425 2000.000 0.000 0.425 3000.000 0.000 0.209
44 733.33 2000.00 61 361 116 0.425 2000.000 0.000 0.425 3000.000 0.000 0.209
45 750.00 2000.00 49 374 141 0.425 2000.000 0.000 0.425 3000.000 0.000 0.209
46 766.67 2000.00 41 375 119 0.425 2000.000 0.000 0.425 3000.000 0.000 0.209
47 783.33 2000.00 53 428 152 0.425 2000.000 0.000 0.425 3000.000 0.000 0.209
48 800.00 2000.00 45 391 138 0.425 2000.000 0.000 0.425 3000.000 0.000 0.209
49 816.67 2000.00 42 391 170 0.425 2000.000 0.000 0.425 3000.000 0.000 0.209
50 833.34 2000.00 57 454 161 0.425 2000.000 0.000 0.425 3000.000 0.000 0.209
51 850.00 2000.00 58 420 164 0.425 2000.000 0.000 0.425 3000.000 0.000 0.209
52 866.67 2000.00 41 498 180 0.425 2000.000 0.000 0.425 3000.000 0.000 0.209
53 883.34 2000.00 53 495 155 0.425 2000.000 0.000 0.425 3000.000 0.000 0.209
54 900.00 2000.00 63 500 174 0.425 2000.000 0.000 0.425 3000.000 0.000 0.209
55 916.67 2000.00 51 456 155 0.425 2000.000 0.000 0.425 3000.000 0.000 0.209
56 933.34 2000.00 48 450 175 0.425 2000.000 0.000 0.425 3000.000 0.000 0.209
57 950.00 2000.00 54 487 185 0.425 2000.000 0.000 0.425 3000.000 0.000 0.209
58 966.67 2000.00 51 455 133 0.425 2000.000 0.000 0.425 3000.000 0.000 0.209
59 983.34 2000.00 63 465 122 0.425 2000.000 0.000 0.425 3000.000 0.000 0.209
60 1000.00 2000.00 44 411 131 0.425 2000.000 0.000 0.425 3000.000 0.000 0.209
61 1016.67 2000.00 49 430 158 0.425 2000.000 0.000 0.425 3000.000 0.000 0.209
62 1033.34 2000.00 50 421 122 0.425 2000.000 0.000 0.425 3000.000 0.000 0.209
63 1050.00 2000.00 50 428 132 0.425 2000.000 0.000 0.425 3000.000 0.000 0.209
64 1066.67 2000.00 48 383 128 0.425 2000.000 0.000 0.425 3000.000 0.000 0.209
65 1083.34 2000.00 61 420 142 0.425 2000.000 0.000 0.425 3000.000 0.000 0.209
66 1100.00 2000.00 47 378 142 0.425 2000.000 0.000 0.425 3000.000 0.000 0.209
67 1116.67 2000.00 66 368 140 0.425 2000.000 0.000 0.425 3000.000 0.000 0.209
68 1133.34 2000.00 56 390 134 0.425 2000.000 0.000 0.425 3000.000 0.000 0.209
69 1150.00 2000.00 54 395 123 0.425 2000.000 0.000 0.425 3000.000 0.000 0.209
70 1166.67 2000.00 57 417 135 0.425 2000.000 0.000 0.425 3000.000 0.000 0.209
71 1183.34 2000.00 43 430 134 0.425 2000.000 0.000 0.425 3000.000 0.000 0.209
72 1200.00 2000.00 65 467 132 0.425 2000.000 0.000 0.425 3000.000 0.000 0.209
73 1216.67 2000.00 65 399 153 0.425 2000.000 0.000 0.425 3000.000 0.000 0.209
74 1233.34 2000.00 73 414 114 0.425 2000.000 0.000 0.425 3000.000 0.000 0.209
75 1250.00 2000.00 46 440 129 0.425 2000.000 0.000 0.425 3000.000 0.000 0.209
76 1266.67 2000.00 57 428 140 0.425 2000.000 0.000 0.425 3000.000 0.000 0.209
77 1283.34 2000.00 58 489 134 0.425 2000.000 0.000 0.425 3000.000 0.000 0.209
78 1300.00 2000.00 59 406 129 0.425 2000.000 0.000 0.425 3000.000 0.000 0.209
79 1316.67 2000.00 49 417 117 0.425 2000.000 0.000 0.425 3000.000 0.000 0.209
80 1333.34 2000.00 48 406 145 0.425 2000.000 0.000 0.425 3000.000 0.000 0.209
81 1350.00 2000.00 46 415 135 0.425 2000.000 0.000 0.425 3000.000 0.000 0.209
82 1366.67 2000.00 41 426 141 0.425 2000.000 0.000 0.425 3000.000 0.000 0.209
83 1383.34 2000.00 38 394 160 0.425 2000.000 0.000 0.425 3000.000 0.000 0.209
84 1400.00 2000.00 31 383 141 0.425 2000.000 0.000 0.425 3000.000 0.000 0.209
85 1416.67 2000.00 44 376 163 0.425 2000.000 0.000 0.425 3000.000 0.000 0.209
86 1433.34 2000.00 35 446 146 0.425 2000.000 0.000 0.425 3000.000 0.000 0.209
87 1450.00 2000.00 34 443 150 0.425 2000.000 0.000 0.425 3000.000 0.000 0.209
88 1466.67 2000.00 43 435 142 0.425 2000.000 0.000 0.425 3000.000 0.000 0.209
89 1483.34 2000.00 52 426 154 0.425 2000.000 0.000 0.425 3000.000 0.000 0.209
90 1500.00 2000.00 51 399 194 0.425 2000.000 0.000 0.425 3000.000 0.000 0.209
91 1516.67 2000.00 47 454 183 0.425 2000.000 0.000 0.425 3000.000 0.000 0.209
92 1533.34 2000.00 57 466 172 0.425 2000.000 0.000 0.425 3000.000 0.000 0.209
93 1550.00 2000.00 62 441 166 0.425 2000.000 0.000 0.425 3000.000 0.000 0.209
94 1566.67 2000.00 62 464 144 0.425 2000.000 0.000 0.425 3000.000 0.000 0.209
95 1583.34 2000.00 67 459 130 0.425 2000.000 0.000 0.425 3000.000 0.000 0.209
96 1600.00 2000.00 70 429 125 0.425 2000.000 0.000 0.425 3000.000 0.000 0.209
97 1616.67 2000.00 65 399 122 0.425 2000.000 0.000 0.425 3000.000 0.000 0.209
98 1633.34 2000.00 65 432 123 0.425 2000.000 0.000 0.425 3000.000 0.000 0.209
99 1650.00 2000.00 58 406 108 0.425 2000.000 0.000 0.425 3000.000 0.000 0.209
100 1666.67 2000.00 63 406 114 0.425 2000.000 0.000 0.425 3000.000 0.000 0.209
101 1683.34 2000.00 54 382 108 0.425 2000.000 0.000 0.425 3000.000 0.000 0.209
102 1700.00 2000.00 60 375 112 0.425 2000.000 0.000 0.425 3000.000 0.000 0.209
103 1716.67 2000.00 53 344 107 0.425 2000.000 0.000 0.425 3000.000 0.000 0.209
104 1733.34 2000.00 52 376 138 0.425 2000.000 0.000 0.425 3000.000 0.000 0.209
105 1750.00 2000.00 49 388 129 0.425 2000.000 0.000 0.425 3000.000 0.000 0.209
106 1766.67 2000.00 45 382 150 0.425 2000.000 0.000 0.425 3000.000 0.000 0.209
107 1783.34 2000.00 47 445 144 0.425 2000.000 0.000 0.425 3000.000 0.000 0.209
108 1800.00 2000.00 57 400 144 0.425 2000.000 0.000 0.425 3000.000 0.000 0.209
109 1816.67 2000.00 49 430 150 0.425 2000.000 0.000 0.425 3000.000 0.000 0.209
110 1833.34 2000.00 74 445 144 0.425 2000.000 0.000 0.425 3000.000 0.000 0.209
111 1850.00 2000.00 53 417 177 0.425 2000.000 0.000 0.425 3000.000 0.000 0.209
112 1866.67 2000.00 39 460 138 0.425 2000.000 0.000 0.425 3000.000 0.000 0.209
113 1883.34 2000.00 53 521 151 0.425 2000.000 0.000 0.425 3000.000 0.000 0.209
114 1900.00 2000.00 42 449 146 0.425 2000.000 0.000 0.425 3000.000 0.000 0.209
115 1916.67 2000.00 64 441 162 0.425 2000.000 0.000 0.425 3000.000 0.000 0.209
116 1933.34 2000.00 40 464 152 0.425 2000.000 0.000 0.425 3000.000 0.000 0.209
117 1950.00 2000.00 43 485 154 0.425 2000.000 0.000 0.425 3000.000 0.000 0.209
118 1966.67 2000.00 50 413 141 0.425 2000.000 0.000 0.425 3000.000 0.000 0.209
119 1983.34 2000.00 36 408 133 0.425 2000.000 0.000 0.425 3000.000 0.000 0.209
