# BinNR microsec tot-time (s)  O-Beam AUX Ampl(V) f(Hz) phase(deg) chi(pos)
0 0.00 1200.00 135 464 1.100 10000.000 0.000 1.165
1 3.00 1200.00 283 913 1.100 10000.000 0.000 1.165
2 6.00 1200.00 257 903 1.100 10000.000 0.000 1.165
3 9.00 1200.00 287 889 1.100 10000.000 0.000 1.165
4 12.00 1200.00 258 846 1.100 10000.000 0.000 1.165
5 15.00 1200.00 271 854 1.100 10000.000 0.000 1.165
6 18.00 1200.00 267 893 1.100 10000.000 0.000 1.165
7 21.00 1200.00 252 850 1.100 10000.000 0.000 1.165
8 24.00 1200.00 243 915 1.100 10000.000 0.000 1.165
9 27.00 1200.00 235 850 1.100 10000.000 0.000 1.165
10 30.00 1200.00 235 910 1.100 10000.000 0.000 1.165
11 33.00 1200.00 250 886 1.100 10000.000 0.000 1.165
12 36.00 1200.00 285 893 1.100 10000.000 0.000 1.165
13 39.00 1200.00 224 937 1.100 10000.000 0.000 1.165
14 42.00 1200.00 276 920 1.100 10000.000 0.000 1.165
15 45.00 1200.00 277 863 1.100 10000.000 0.000 1.165
16 48.00 1200.00 257 921 1.100 10000.000 0.000 1.165
17 51.00 1200.00 264 891 1.100 10000.000 0.000 1.165
18 54.00 1200.00 293 941 1.100 10000.000 0.000 1.165
19 57.00 1200.00 285 871 1.100 10000.000 0.000 1.165
20 60.00 1200.00 249 924 1.100 10000.000 0.000 1.165
21 63.00 1200.00 275 874 1.100 10000.000 0.000 1.165
22 66.00 1200.00 304 842 1.100 10000.000 0.000 1.165
23 69.00 1200.00 263 824 1.100 10000.000 0.000 1.165
24 72.00 1200.00 302 817 1.100 10000.000 0.000 1.165
25 75.00 1200.00 283 811 1.100 10000.000 0.000 1.165
26 78.00 1200.00 288 853 1.100 10000.000 0.000 1.165
27 81.00 1200.00 293 817 1.100 10000.000 0.000 1.165
28 84.00 1200.00 289 812 1.100 10000.000 0.000 1.165
29 87.00 1200.00 278 806 1.100 10000.000 0.000 1.165
30 90.00 1200.00 273 815 1.100 10000.000 0.000 1.165
31 93.00 1200.00 252 818 1.100 10000.000 0.000 1.165
32 96.00 1200.00 294 816 1.100 10000.000 0.000 1.165
33 99.00 1200.00 291 757 1.100 10000.000 0.000 1.165
34 102.00 1200.00 274 828 1.100 10000.000 0.000 1.165
35 105.00 1200.00 290 830 1.100 10000.000 0.000 1.165
36 108.00 1200.00 234 849 1.100 10000.000 0.000 1.165
37 111.00 1200.00 263 946 1.100 10000.000 0.000 1.165
38 114.00 1200.00 244 847 1.100 10000.000 0.000 1.165
39 117.00 1200.00 236 915 1.100 10000.000 0.000 1.165
40 120.00 1200.00 283 922 1.100 10000.000 0.000 1.165
41 123.00 1200.00 267 899 1.100 10000.000 0.000 1.165
42 126.00 1200.00 258 953 1.100 10000.000 0.000 1.165
43 129.00 1200.00 227 915 1.100 10000.000 0.000 1.165
44 132.00 1200.00 227 938 1.100 10000.000 0.000 1.165
45 135.00 1200.00 256 903 1.100 10000.000 0.000 1.165
46 138.00 1200.00 235 943 1.100 10000.000 0.000 1.165
47 141.00 1200.00 232 907 1.100 10000.000 0.000 1.165
48 144.00 1200.00 275 934 1.100 10000.000 0.000 1.165
49 147.00 1200.00 261 824 1.100 10000.000 0.000 1.165
50 150.00 1200.00 264 955 1.100 10000.000 0.000 1.165
51 153.00 1200.00 283 893 1.100 10000.000 0.000 1.165
52 156.00 1200.00 270 885 1.100 10000.000 0.000 1.165
53 159.00 1200.00 278 867 1.100 10000.000 0.000 1.165
54 162.00 1200.00 288 909 1.100 10000.000 0.000 1.165
55 165.00 1200.00 268 839 1.100 10000.000 0.000 1.165
56 168.00 1200.00 268 860 1.100 10000.000 0.000 1.165
57 171.00 1200.00 292 823 1.100 10000.000 0.000 1.165
58 174.00 1200.00 280 838 1.100 10000.000 0.000 1.165
59 177.00 1200.00 277 849 1.100 10000.000 0.000 1.165
60 180.00 1200.00 298 845 1.100 10000.000 0.000 1.165
61 183.00 1200.00 301 818 1.100 10000.000 0.000 1.165
62 186.00 1200.00 321 819 1.100 10000.000 0.000 1.165
63 189.00 1200.00 277 828 1.100 10000.000 0.000 1.165
64 192.00 1200.00 301 761 1.100 10000.000 0.000 1.165
65 195.00 1200.00 277 837 1.100 10000.000 0.000 1.165
66 198.00 1200.00 295 754 1.100 10000.000 0.000 1.165
67 201.00 1200.00 283 802 1.100 10000.000 0.000 1.165
68 204.00 1200.00 294 834 1.100 10000.000 0.000 1.165
69 207.00 1200.00 217 765 1.100 10000.000 0.000 1.165
70 210.00 1200.00 275 839 1.100 10000.000 0.000 1.165
71 213.00 1200.00 235 855 1.100 10000.000 0.000 1.165
72 216.00 1200.00 259 896 1.100 10000.000 0.000 1.165
73 219.00 1200.00 235 834 1.100 10000.000 0.000 1.165
74 222.00 1200.00 254 910 1.100 10000.000 0.000 1.165
75 225.00 1200.00 262 844 1.100 10000.000 0.000 1.165
76 228.00 1200.00 283 847 1.100 10000.000 0.000 1.165
77 231.00 1200.00 261 955 1.100 10000.000 0.000 1.165
78 234.00 1200.00 249 885 1.100 10000.000 0.000 1.165
79 237.00 1200.00 270 948 1.100 10000.000 0.000 1.165
80 240.00 1200.00 296 954 1.100 10000.000 0.000 1.165
81 243.00 1200.00 259 891 1.100 10000.000 0.000 1.165
82 246.00 1200.00 284 907 1.100 10000.000 0.000 1.165
83 249.00 1200.00 283 889 1.100 10000.000 0.000 1.165
84 252.00 1200.00 276 851 1.100 10000.000 0.000 1.165
85 255.00 1200.00 280 869 1.100 10000.000 0.000 1.165
86 258.00 1200.00 306 885 1.100 10000.000 0.000 1.165
87 261.00 1200.00 290 859 1.100 10000.000 0.000 1.165
88 264.00 1200.00 293 885 1.100 10000.000 0.000 1.165
89 267.00 1200.00 304 860 1.100 10000.000 0.000 1.165
90 270.00 1200.00 309 815 1.100 10000.000 0.000 1.165
91 273.00 1200.00 283 826 1.100 10000.000 0.000 1.165
92 276.00 1200.00 279 835 1.100 10000.000 0.000 1.165
93 279.00 1200.00 262 840 1.100 10000.000 0.000 1.165
94 282.00 1200.00 262 802 1.100 10000.000 0.000 1.165
95 285.00 1200.00 281 833 1.100 10000.000 0.000 1.165
96 288.00 1200.00 269 888 1.100 10000.000 0.000 1.165
97 291.00 1200.00 244 788 1.100 10000.000 0.000 1.165
98 294.00 1200.00 276 805 1.100 10000.000 0.000 1.165
99 297.00 1200.00 266 874 1.100 10000.000 0.000 1.165
100 300.00 1200.00 274 842 1.100 10000.000 0.000 1.165
101 303.00 1200.00 280 836 1.100 10000.000 0.000 1.165
102 306.00 1200.00 268 878 1.100 10000.000 0.000 1.165
103 309.00 1200.00 275 797 1.100 10000.000 0.000 1.165
104 312.00 1200.00 289 844 1.100 10000.000 0.000 1.165
105 315.00 1200.00 296 861 1.100 10000.000 0.000 1.165
106 318.00 1200.00 296 885 1.100 10000.000 0.000 1.165
107 321.00 1200.00 308 886 1.100 10000.000 0.000 1.165
108 324.00 1200.00 290 954 1.100 10000.000 0.000 1.165
109 327.00 1200.00 258 876 1.100 10000.000 0.000 1.165
110 330.00 1200.00 284 940 1.100 10000.000 0.000 1.165
111 333.00 1200.00 270 907 1.100 10000.000 0.000 1.165
112 336.00 1200.00 271 902 1.100 10000.000 0.000 1.165
113 339.00 1200.00 248 892 1.100 10000.000 0.000 1.165
114 342.00 1200.00 260 908 1.100 10000.000 0.000 1.165
115 345.00 1200.00 260 917 1.100 10000.000 0.000 1.165
116 348.00 1200.00 268 927 1.100 10000.000 0.000 1.165
117 351.00 1200.00 248 886 1.100 10000.000 0.000 1.165
118 354.00 1200.00 269 896 1.100 10000.000 0.000 1.165
119 357.00 1200.00 274 893 1.100 10000.000 0.000 1.165
120 360.00 1200.00 270 875 1.100 10000.000 0.000 1.165
121 363.00 1200.00 259 899 1.100 10000.000 0.000 1.165
122 366.00 1200.00 266 852 1.100 10000.000 0.000 1.165
123 369.00 1200.00 245 868 1.100 10000.000 0.000 1.165
124 372.00 1200.00 242 861 1.100 10000.000 0.000 1.165
125 375.00 1200.00 261 829 1.100 10000.000 0.000 1.165
126 378.00 1200.00 269 827 1.100 10000.000 0.000 1.165
127 381.00 1200.00 302 810 1.100 10000.000 0.000 1.165
128 384.00 1200.00 297 807 1.100 10000.000 0.000 1.165
129 387.00 1200.00 296 840 1.100 10000.000 0.000 1.165
130 390.00 1200.00 250 814 1.100 10000.000 0.000 1.165
131 393.00 1200.00 277 805 1.100 10000.000 0.000 1.165
132 396.00 1200.00 287 845 1.100 10000.000 0.000 1.165
133 399.00 1200.00 301 850 1.100 10000.000 0.000 1.165
134 402.00 1200.00 260 843 1.100 10000.000 0.000 1.165
135 405.00 1200.00 263 868 1.100 10000.000 0.000 1.165
136 408.00 1200.00 277 874 1.100 10000.000 0.000 1.165
137 411.00 1200.00 295 833 1.100 10000.000 0.000 1.165
138 414.00 1200.00 278 854 1.100 10000.000 0.000 1.165
139 417.00 1200.00 282 840 1.100 10000.000 0.000 1.165
140 420.00 1200.00 291 879 1.100 10000.000 0.000 1.165
141 423.00 1200.00 320 865 1.100 10000.000 0.000 1.165
142 426.00 1200.00 284 944 1.100 10000.000 0.000 1.165
143 429.00 1200.00 262 938 1.100 10000.000 0.000 1.165
144 432.00 1200.00 278 887 1.100 10000.000 0.000 1.165
