# BinNR microsec tot-time (s)  O-Beam AUX Ampl(V) f(Hz) phase(deg) chi(pos)
0 0.00 1200.00 72 235 1.100 10000.000 0.000 0.824
1 3.00 1200.00 128 493 1.100 10000.000 0.000 0.824
2 6.00 1200.00 134 512 1.100 10000.000 0.000 0.824
3 9.00 1200.00 137 503 1.100 10000.000 0.000 0.824
4 12.00 1200.00 118 474 1.100 10000.000 0.000 0.824
5 15.00 1200.00 107 439 1.100 10000.000 0.000 0.824
6 18.00 1200.00 116 437 1.100 10000.000 0.000 0.824
7 21.00 1200.00 151 410 1.100 10000.000 0.000 0.824
8 24.00 1200.00 109 439 1.100 10000.000 0.000 0.824
9 27.00 1200.00 143 515 1.100 10000.000 0.000 0.824
10 30.00 1200.00 134 471 1.100 10000.000 0.000 0.824
11 33.00 1200.00 123 475 1.100 10000.000 0.000 0.824
12 36.00 1200.00 118 467 1.100 10000.000 0.000 0.824
13 39.00 1200.00 128 488 1.100 10000.000 0.000 0.824
14 42.00 1200.00 125 554 1.100 10000.000 0.000 0.824
15 45.00 1200.00 143 476 1.100 10000.000 0.000 0.824
16 48.00 1200.00 149 554 1.100 10000.000 0.000 0.824
17 51.00 1200.00 125 522 1.100 10000.000 0.000 0.824
18 54.00 1200.00 137 532 1.100 10000.000 0.000 0.824
19 57.00 1200.00 151 509 1.100 10000.000 0.000 0.824
20 60.00 1200.00 150 491 1.100 10000.000 0.000 0.824
21 63.00 1200.00 173 415 1.100 10000.000 0.000 0.824
22 66.00 1200.00 165 396 1.100 10000.000 0.000 0.824
23 69.00 1200.00 151 415 1.100 10000.000 0.000 0.824
24 72.00 1200.00 155 428 1.100 10000.000 0.000 0.824
25 75.00 1200.00 150 385 1.100 10000.000 0.000 0.824
26 78.00 1200.00 145 404 1.100 10000.000 0.000 0.824
27 81.00 1200.00 175 391 1.100 10000.000 0.000 0.824
28 84.00 1200.00 146 430 1.100 10000.000 0.000 0.824
29 87.00 1200.00 150 386 1.100 10000.000 0.000 0.824
30 90.00 1200.00 142 373 1.100 10000.000 0.000 0.824
31 93.00 1200.00 133 386 1.100 10000.000 0.000 0.824
32 96.00 1200.00 147 386 1.100 10000.000 0.000 0.824
33 99.00 1200.00 145 402 1.100 10000.000 0.000 0.824
34 102.00 1200.00 152 396 1.100 10000.000 0.000 0.824
35 105.00 1200.00 134 420 1.100 10000.000 0.000 0.824
36 108.00 1200.00 128 429 1.100 10000.000 0.000 0.824
37 111.00 1200.00 134 436 1.100 10000.000 0.000 0.824
38 114.00 1200.00 114 475 1.100 10000.000 0.000 0.824
39 117.00 1200.00 120 464 1.100 10000.000 0.000 0.824
40 120.00 1200.00 93 481 1.100 10000.000 0.000 0.824
41 123.00 1200.00 142 508 1.100 10000.000 0.000 0.824
42 126.00 1200.00 126 522 1.100 10000.000 0.000 0.824
43 129.00 1200.00 128 546 1.100 10000.000 0.000 0.824
44 132.00 1200.00 128 527 1.100 10000.000 0.000 0.824
45 135.00 1200.00 119 556 1.100 10000.000 0.000 0.824
46 138.00 1200.00 127 560 1.100 10000.000 0.000 0.824
47 141.00 1200.00 135 546 1.100 10000.000 0.000 0.824
48 144.00 1200.00 154 513 1.100 10000.000 0.000 0.824
49 147.00 1200.00 137 537 1.100 10000.000 0.000 0.824
50 150.00 1200.00 148 573 1.100 10000.000 0.000 0.824
51 153.00 1200.00 117 499 1.100 10000.000 0.000 0.824
52 156.00 1200.00 151 535 1.100 10000.000 0.000 0.824
53 159.00 1200.00 159 478 1.100 10000.000 0.000 0.824
54 162.00 1200.00 183 509 1.100 10000.000 0.000 0.824
55 165.00 1200.00 173 450 1.100 10000.000 0.000 0.824
56 168.00 1200.00 154 424 1.100 10000.000 0.000 0.824
57 171.00 1200.00 159 406 1.100 10000.000 0.000 0.824
58 174.00 1200.00 183 420 1.100 10000.000 0.000 0.824
59 177.00 1200.00 166 403 1.100 10000.000 0.000 0.824
60 180.00 1200.00 151 376 1.100 10000.000 0.000 0.824
61 183.00 1200.00 152 382 1.100 10000.000 0.000 0.824
62 186.00 1200.00 182 428 1.100 10000.000 0.000 0.824
63 189.00 1200.00 162 408 1.100 10000.000 0.000 0.824
64 192.00 1200.00 155 386 1.100 10000.000 0.000 0.824
65 195.00 1200.00 157 364 1.100 10000.000 0.000 0.824
66 198.00 1200.00 165 417 1.100 10000.000 0.000 0.824
67 201.00 1200.00 155 399 1.100 10000.000 0.000 0.824
68 204.00 1200.00 140 418 1.100 10000.000 0.000 0.824
69 207.00 1200.00 123 425 1.100 10000.000 0.000 0.824
70 210.00 1200.00 142 454 1.100 10000.000 0.000 0.824
71 213.00 1200.00 136 451 1.100 10000.000 0.000 0.824
72 216.00 1200.00 136 492 1.100 10000.000 0.000 0.824
73 219.00 1200.00 108 485 1.100 10000.000 0.000 0.824
74 222.00 1200.00 127 485 1.100 10000.000 0.000 0.824
75 225.00 1200.00 141 508 1.100 10000.000 0.000 0.824
76 228.00 1200.00 114 504 1.100 10000.000 0.000 0.824
77 231.00 1200.00 124 501 1.100 10000.000 0.000 0.824
78 234.00 1200.00 135 451 1.100 10000.000 0.000 0.824
79 237.00 1200.00 129 488 1.100 10000.000 0.000 0.824
80 240.00 1200.00 155 514 1.100 10000.000 0.000 0.824
81 243.00 1200.00 136 561 1.100 10000.000 0.000 0.824
82 246.00 1200.00 141 524 1.100 10000.000 0.000 0.824
83 249.00 1200.00 147 524 1.100 10000.000 0.000 0.824
84 252.00 1200.00 137 509 1.100 10000.000 0.000 0.824
85 255.00 1200.00 132 466 1.100 10000.000 0.000 0.824
86 258.00 1200.00 150 543 1.100 10000.000 0.000 0.824
87 261.00 1200.00 173 482 1.100 10000.000 0.000 0.824
88 264.00 1200.00 174 412 1.100 10000.000 0.000 0.824
89 267.00 1200.00 143 451 1.100 10000.000 0.000 0.824
90 270.00 1200.00 163 443 1.100 10000.000 0.000 0.824
91 273.00 1200.00 131 374 1.100 10000.000 0.000 0.824
92 276.00 1200.00 149 391 1.100 10000.000 0.000 0.824
93 279.00 1200.00 147 433 1.100 10000.000 0.000 0.824
94 282.00 1200.00 134 406 1.100 10000.000 0.000 0.824
95 285.00 1200.00 134 356 1.100 10000.000 0.000 0.824
96 288.00 1200.00 146 405 1.100 10000.000 0.000 0.824
97 291.00 1200.00 119 365 1.100 10000.000 0.000 0.824
98 294.00 1200.00 153 404 1.100 10000.000 0.000 0.824
99 297.00 1200.00 138 416 1.100 10000.000 0.000 0.824
100 300.00 1200.00 141 422 1.100 10000.000 0.000 0.824
101 303.00 1200.00 130 421 1.100 10000.000 0.000 0.824
102 306.00 1200.00 145 414 1.100 10000.000 0.000 0.824
103 309.00 1200.00 130 441 1.100 10000.000 0.000 0.824
104 312.00 1200.00 137 441 1.100 10000.000 0.000 0.824
105 315.00 1200.00 146 455 1.100 10000.000 0.000 0.824
106 318.00 1200.00 154 534 1.100 10000.000 0.000 0.824
107 321.00 1200.00 151 463 1.100 10000.000 0.000 0.824
108 324.00 1200.00 149 493 1.100 10000.000 0.000 0.824
109 327.00 1200.00 176 513 1.100 10000.000 0.000 0.824
110 330.00 1200.00 157 532 1.100 10000.000 0.000 0.824
111 333.00 1200.00 117 515 1.100 10000.000 0.000 0.824
112 336.00 1200.00 110 545 1.100 10000.000 0.000 0.824
113 339.00 1200.00 130 515 1.100 10000.000 0.000 0.824
114 342.00 1200.00 147 508 1.100 10000.000 0.000 0.824
115 345.00 1200.00 126 540 1.100 10000.000 0.000 0.824
116 348.00 1200.00 119 509 1.100 10000.000 0.000 0.824
117 351.00 1200.00 118 527 1.100 10000.000 0.000 0.824
118 354.00 1200.00 112 495 1.100 10000.000 0.000 0.824
119 357.00 1200.00 109 473 1.100 10000.000 0.000 0.824
120 360.00 1200.00 133 491 1.100 10000.000 0.000 0.824
121 363.00 1200.00 118 439 1.100 10000.000 0.000 0.824
122 366.00 1200.00 122 415 1.100 10000.000 0.000 0.824
123 369.00 1200.00 111 474 1.100 10000.000 0.000 0.824
124 372.00 1200.00 120 450 1.100 10000.000 0.000 0.824
125 375.00 1200.00 124 362 1.100 10000.000 0.000 0.824
126 378.00 1200.00 112 395 1.100 10000.000 0.000 0.824
127 381.00 1200.00 133 403 1.100 10000.000 0.000 0.824
128 384.00 1200.00 152 382 1.100 10000.000 0.000 0.824
129 387.00 1200.00 142 397 1.100 10000.000 0.000 0.824
130 390.00 1200.00 143 407 1.100 10000.000 0.000 0.824
131 393.00 1200.00 138 365 1.100 10000.000 0.000 0.824
132 396.00 1200.00 156 400 1.100 10000.000 0.000 0.824
133 399.00 1200.00 152 416 1.100 10000.000 0.000 0.824
134 402.00 1200.00 171 410 1.100 10000.000 0.000 0.824
135 405.00 1200.00 133 454 1.100 10000.000 0.000 0.824
136 408.00 1200.00 149 434 1.100 10000.000 0.000 0.824
137 411.00 1200.00 144 451 1.100 10000.000 0.000 0.824
138 414.00 1200.00 158 456 1.100 10000.000 0.000 0.824
139 417.00 1200.00 153 460 1.100 10000.000 0.000 0.824
140 420.00 1200.00 157 514 1.100 10000.000 0.000 0.824
141 423.00 1200.00 188 538 1.100 10000.000 0.000 0.824
142 426.00 1200.00 158 531 1.100 10000.000 0.000 0.824
143 429.00 1200.00 154 514 1.100 10000.000 0.000 0.824
144 432.00 1200.00 147 501 1.100 10000.000 0.000 0.824
