# BinNR microsec tot-time (s)  O-Beam AUX Ampl(V) f(Hz) phase(deg) chi(pos)
0 0.00 1200.01 126 266 1.100 10000.000 0.000 -0.176
1 3.00 1200.01 268 544 1.100 10000.000 0.000 -0.176
2 6.00 1200.01 269 547 1.100 10000.000 0.000 -0.176
3 9.00 1200.01 288 553 1.100 10000.000 0.000 -0.176
4 12.00 1200.01 306 582 1.100 10000.000 0.000 -0.176
5 15.00 1200.01 286 614 1.100 10000.000 0.000 -0.176
6 18.00 1200.01 309 643 1.100 10000.000 0.000 -0.176
7 21.00 1200.01 289 642 1.100 10000.000 0.000 -0.176
8 24.00 1200.01 297 625 1.100 10000.000 0.000 -0.176
9 27.00 1200.01 312 584 1.100 10000.000 0.000 -0.176
10 30.00 1200.01 302 587 1.100 10000.000 0.000 -0.176
11 33.00 1200.01 286 583 1.100 10000.000 0.000 -0.176
12 36.00 1200.01 272 605 1.100 10000.000 0.000 -0.176
13 39.00 1200.01 294 601 1.100 10000.000 0.000 -0.176
14 42.00 1200.01 261 586 1.100 10000.000 0.000 -0.176
15 45.00 1200.01 278 548 1.100 10000.000 0.000 -0.176
16 48.00 1200.01 286 575 1.100 10000.000 0.000 -0.176
17 51.00 1200.01 280 572 1.100 10000.000 0.000 -0.176
18 54.00 1200.01 292 578 1.100 10000.000 0.000 -0.176
19 57.00 1200.01 246 524 1.100 10000.000 0.000 -0.176
20 60.00 1200.01 257 608 1.100 10000.000 0.000 -0.176
21 63.00 1200.01 285 623 1.100 10000.000 0.000 -0.176
22 66.00 1200.01 263 595 1.100 10000.000 0.000 -0.176
23 69.00 1200.01 233 625 1.100 10000.000 0.000 -0.176
24 72.00 1200.01 287 695 1.100 10000.000 0.000 -0.176
25 75.00 1200.01 267 668 1.100 10000.000 0.000 -0.176
26 78.00 1200.01 261 712 1.100 10000.000 0.000 -0.176
27 81.00 1200.01 254 703 1.100 10000.000 0.000 -0.176
28 84.00 1200.01 234 711 1.100 10000.000 0.000 -0.176
29 87.00 1200.01 253 644 1.100 10000.000 0.000 -0.176
30 90.00 1200.01 307 670 1.100 10000.000 0.000 -0.176
31 93.00 1200.01 285 674 1.100 10000.000 0.000 -0.176
32 96.00 1200.01 279 718 1.100 10000.000 0.000 -0.176
33 99.00 1200.01 305 671 1.100 10000.000 0.000 -0.176
34 102.00 1200.01 294 738 1.100 10000.000 0.000 -0.176
35 105.00 1200.01 281 578 1.100 10000.000 0.000 -0.176
36 108.00 1200.01 284 679 1.100 10000.000 0.000 -0.176
37 111.00 1200.01 263 570 1.100 10000.000 0.000 -0.176
38 114.00 1200.01 282 660 1.100 10000.000 0.000 -0.176
39 117.00 1200.01 311 619 1.100 10000.000 0.000 -0.176
40 120.00 1200.01 286 604 1.100 10000.000 0.000 -0.176
41 123.00 1200.01 316 563 1.100 10000.000 0.000 -0.176
42 126.00 1200.01 286 520 1.100 10000.000 0.000 -0.176
43 129.00 1200.01 302 534 1.100 10000.000 0.000 -0.176
44 132.00 1200.01 298 550 1.100 10000.000 0.000 -0.176
45 135.00 1200.01 295 553 1.100 10000.000 0.000 -0.176
46 138.00 1200.01 312 560 1.100 10000.000 0.000 -0.176
47 141.00 1200.01 260 530 1.100 10000.000 0.000 -0.176
48 144.00 1200.01 260 497 1.100 10000.000 0.000 -0.176
49 147.00 1200.01 271 593 1.100 10000.000 0.000 -0.176
50 150.00 1200.01 265 575 1.100 10000.000 0.000 -0.176
51 153.00 1200.01 269 594 1.100 10000.000 0.000 -0.176
52 156.00 1200.01 274 613 1.100 10000.000 0.000 -0.176
53 159.00 1200.01 261 574 1.100 10000.000 0.000 -0.176
54 162.00 1200.01 250 604 1.100 10000.000 0.000 -0.176
55 165.00 1200.01 247 596 1.100 10000.000 0.000 -0.176
56 168.00 1200.01 250 622 1.100 10000.000 0.000 -0.176
57 171.00 1200.01 227 616 1.100 10000.000 0.000 -0.176
58 174.00 1200.01 243 661 1.100 10000.000 0.000 -0.176
59 177.00 1200.01 285 651 1.100 10000.000 0.000 -0.176
60 180.00 1200.01 265 675 1.100 10000.000 0.000 -0.176
61 183.00 1200.01 267 594 1.100 10000.000 0.000 -0.176
62 186.00 1200.01 258 673 1.100 10000.000 0.000 -0.176
63 189.00 1200.01 275 665 1.100 10000.000 0.000 -0.176
64 192.00 1200.01 271 722 1.100 10000.000 0.000 -0.176
65 195.00 1200.01 235 655 1.100 10000.000 0.000 -0.176
66 198.00 1200.01 271 655 1.100 10000.000 0.000 -0.176
67 201.00 1200.01 270 641 1.100 10000.000 0.000 -0.176
68 204.00 1200.01 269 657 1.100 10000.000 0.000 -0.176
69 207.00 1200.01 314 640 1.100 10000.000 0.000 -0.176
70 210.00 1200.01 280 676 1.100 10000.000 0.000 -0.176
71 213.00 1200.01 281 590 1.100 10000.000 0.000 -0.176
72 216.00 1200.01 288 647 1.100 10000.000 0.000 -0.176
73 219.00 1200.01 277 576 1.100 10000.000 0.000 -0.176
74 222.00 1200.01 322 562 1.100 10000.000 0.000 -0.176
75 225.00 1200.01 323 559 1.100 10000.000 0.000 -0.176
76 228.00 1200.01 282 523 1.100 10000.000 0.000 -0.176
77 231.00 1200.01 312 546 1.100 10000.000 0.000 -0.176
78 234.00 1200.01 295 516 1.100 10000.000 0.000 -0.176
79 237.00 1200.01 293 539 1.100 10000.000 0.000 -0.176
80 240.00 1200.01 308 512 1.100 10000.000 0.000 -0.176
81 243.00 1200.01 285 521 1.100 10000.000 0.000 -0.176
82 246.00 1200.01 298 542 1.100 10000.000 0.000 -0.176
83 249.00 1200.01 270 522 1.100 10000.000 0.000 -0.176
84 252.00 1200.01 303 566 1.100 10000.000 0.000 -0.176
85 255.00 1200.01 269 589 1.100 10000.000 0.000 -0.176
86 258.00 1200.01 291 572 1.100 10000.000 0.000 -0.176
87 261.00 1200.01 265 602 1.100 10000.000 0.000 -0.176
88 264.00 1200.01 262 638 1.100 10000.000 0.000 -0.176
89 267.00 1200.01 273 632 1.100 10000.000 0.000 -0.176
90 270.00 1200.01 279 619 1.100 10000.000 0.000 -0.176
91 273.00 1200.01 264 636 1.100 10000.000 0.000 -0.176
92 276.00 1200.01 280 682 1.100 10000.000 0.000 -0.176
93 279.00 1200.01 284 668 1.100 10000.000 0.000 -0.176
94 282.00 1200.01 247 686 1.100 10000.000 0.000 -0.176
95 285.00 1200.01 277 683 1.100 10000.000 0.000 -0.176
96 288.00 1200.01 283 661 1.100 10000.000 0.000 -0.176
97 291.00 1200.01 265 712 1.100 10000.000 0.000 -0.176
98 294.00 1200.01 277 655 1.100 10000.000 0.000 -0.176
99 297.00 1200.01 265 682 1.100 10000.000 0.000 -0.176
100 300.00 1200.01 283 745 1.100 10000.000 0.000 -0.176
101 303.00 1200.01 266 640 1.100 10000.000 0.000 -0.176
102 306.00 1200.01 279 637 1.100 10000.000 0.000 -0.176
103 309.00 1200.01 275 618 1.100 10000.000 0.000 -0.176
104 312.00 1200.01 255 630 1.100 10000.000 0.000 -0.176
105 315.00 1200.01 233 632 1.100 10000.000 0.000 -0.176
106 318.00 1200.01 259 605 1.100 10000.000 0.000 -0.176
107 321.00 1200.01 288 563 1.100 10000.000 0.000 -0.176
108 324.00 1200.01 309 559 1.100 10000.000 0.000 -0.176
109 327.00 1200.01 267 540 1.100 10000.000 0.000 -0.176
110 330.00 1200.01 292 558 1.100 10000.000 0.000 -0.176
111 333.00 1200.01 298 528 1.100 10000.000 0.000 -0.176
112 336.00 1200.01 317 559 1.100 10000.000 0.000 -0.176
113 339.00 1200.01 286 529 1.100 10000.000 0.000 -0.176
114 342.00 1200.01 279 546 1.100 10000.000 0.000 -0.176
115 345.00 1200.01 289 573 1.100 10000.000 0.000 -0.176
116 348.00 1200.01 319 538 1.100 10000.000 0.000 -0.176
117 351.00 1200.01 296 590 1.100 10000.000 0.000 -0.176
118 354.00 1200.01 267 587 1.100 10000.000 0.000 -0.176
119 357.00 1200.01 298 600 1.100 10000.000 0.000 -0.176
120 360.00 1200.01 298 549 1.100 10000.000 0.000 -0.176
121 363.00 1200.01 285 590 1.100 10000.000 0.000 -0.176
122 366.00 1200.01 280 618 1.100 10000.000 0.000 -0.176
123 369.00 1200.01 292 605 1.100 10000.000 0.000 -0.176
124 372.00 1200.01 297 656 1.100 10000.000 0.000 -0.176
125 375.00 1200.01 319 660 1.100 10000.000 0.000 -0.176
126 378.00 1200.01 285 689 1.100 10000.000 0.000 -0.176
127 381.00 1200.01 272 682 1.100 10000.000 0.000 -0.176
128 384.00 1200.01 275 671 1.100 10000.000 0.000 -0.176
129 387.00 1200.01 301 661 1.100 10000.000 0.000 -0.176
130 390.00 1200.01 291 706 1.100 10000.000 0.000 -0.176
131 393.00 1200.01 250 638 1.100 10000.000 0.000 -0.176
132 396.00 1200.01 275 724 1.100 10000.000 0.000 -0.176
133 399.00 1200.01 262 670 1.100 10000.000 0.000 -0.176
134 402.00 1200.01 252 687 1.100 10000.000 0.000 -0.176
135 405.00 1200.01 252 636 1.100 10000.000 0.000 -0.176
136 408.00 1200.01 276 683 1.100 10000.000 0.000 -0.176
137 411.00 1200.01 264 619 1.100 10000.000 0.000 -0.176
138 414.00 1200.01 274 610 1.100 10000.000 0.000 -0.176
139 417.00 1200.01 261 607 1.100 10000.000 0.000 -0.176
140 420.00 1200.01 285 592 1.100 10000.000 0.000 -0.176
141 423.00 1200.01 291 570 1.100 10000.000 0.000 -0.176
142 426.00 1200.01 302 562 1.100 10000.000 0.000 -0.176
143 429.00 1200.01 271 572 1.100 10000.000 0.000 -0.176
144 432.00 1200.01 283 563 1.100 10000.000 0.000 -0.176
