# BinNR microsec tot-time (s)  O-Beam AUX Ampl(V) f(Hz) phase(deg) chi(pos)
0 0.00 1200.00 157 488 1.100 10000.000 0.000 1.318
1 3.00 1200.00 319 939 1.100 10000.000 0.000 1.318
2 6.00 1200.00 324 1013 1.100 10000.000 0.000 1.318
3 9.00 1200.00 339 1042 1.100 10000.000 0.000 1.318
4 12.00 1200.00 301 964 1.100 10000.000 0.000 1.318
5 15.00 1200.00 302 972 1.100 10000.000 0.000 1.318
6 18.00 1200.00 298 971 1.100 10000.000 0.000 1.318
7 21.00 1200.00 348 995 1.100 10000.000 0.000 1.318
8 24.00 1200.00 315 982 1.100 10000.000 0.000 1.318
9 27.00 1200.00 358 944 1.100 10000.000 0.000 1.318
10 30.00 1200.00 310 1010 1.100 10000.000 0.000 1.318
11 33.00 1200.00 280 982 1.100 10000.000 0.000 1.318
12 36.00 1200.00 322 1015 1.100 10000.000 0.000 1.318
13 39.00 1200.00 314 1047 1.100 10000.000 0.000 1.318
14 42.00 1200.00 319 1038 1.100 10000.000 0.000 1.318
15 45.00 1200.00 352 986 1.100 10000.000 0.000 1.318
16 48.00 1200.00 301 1045 1.100 10000.000 0.000 1.318
17 51.00 1200.00 319 1030 1.100 10000.000 0.000 1.318
18 54.00 1200.00 297 1007 1.100 10000.000 0.000 1.318
19 57.00 1200.00 303 977 1.100 10000.000 0.000 1.318
20 60.00 1200.00 346 996 1.100 10000.000 0.000 1.318
21 63.00 1200.00 328 991 1.100 10000.000 0.000 1.318
22 66.00 1200.00 360 1004 1.100 10000.000 0.000 1.318
23 69.00 1200.00 321 947 1.100 10000.000 0.000 1.318
24 72.00 1200.00 345 947 1.100 10000.000 0.000 1.318
25 75.00 1200.00 313 1019 1.100 10000.000 0.000 1.318
26 78.00 1200.00 349 1005 1.100 10000.000 0.000 1.318
27 81.00 1200.00 343 941 1.100 10000.000 0.000 1.318
28 84.00 1200.00 328 956 1.100 10000.000 0.000 1.318
29 87.00 1200.00 327 976 1.100 10000.000 0.000 1.318
30 90.00 1200.00 303 977 1.100 10000.000 0.000 1.318
31 93.00 1200.00 305 879 1.100 10000.000 0.000 1.318
32 96.00 1200.00 319 979 1.100 10000.000 0.000 1.318
33 99.00 1200.00 306 984 1.100 10000.000 0.000 1.318
34 102.00 1200.00 328 937 1.100 10000.000 0.000 1.318
35 105.00 1200.00 303 919 1.100 10000.000 0.000 1.318
36 108.00 1200.00 313 975 1.100 10000.000 0.000 1.318
37 111.00 1200.00 298 989 1.100 10000.000 0.000 1.318
38 114.00 1200.00 339 1016 1.100 10000.000 0.000 1.318
39 117.00 1200.00 293 1006 1.100 10000.000 0.000 1.318
40 120.00 1200.00 291 1007 1.100 10000.000 0.000 1.318
41 123.00 1200.00 300 1011 1.100 10000.000 0.000 1.318
42 126.00 1200.00 312 967 1.100 10000.000 0.000 1.318
43 129.00 1200.00 305 982 1.100 10000.000 0.000 1.318
44 132.00 1200.00 303 1007 1.100 10000.000 0.000 1.318
45 135.00 1200.00 310 1002 1.100 10000.000 0.000 1.318
46 138.00 1200.00 343 1043 1.100 10000.000 0.000 1.318
47 141.00 1200.00 320 961 1.100 10000.000 0.000 1.318
48 144.00 1200.00 316 1028 1.100 10000.000 0.000 1.318
49 147.00 1200.00 323 993 1.100 10000.000 0.000 1.318
50 150.00 1200.00 326 1008 1.100 10000.000 0.000 1.318
51 153.00 1200.00 298 957 1.100 10000.000 0.000 1.318
52 156.00 1200.00 317 974 1.100 10000.000 0.000 1.318
53 159.00 1200.00 332 989 1.100 10000.000 0.000 1.318
54 162.00 1200.00 340 986 1.100 10000.000 0.000 1.318
55 165.00 1200.00 308 967 1.100 10000.000 0.000 1.318
56 168.00 1200.00 329 993 1.100 10000.000 0.000 1.318
57 171.00 1200.00 359 987 1.100 10000.000 0.000 1.318
58 174.00 1200.00 335 976 1.100 10000.000 0.000 1.318
59 177.00 1200.00 332 983 1.100 10000.000 0.000 1.318
60 180.00 1200.00 338 988 1.100 10000.000 0.000 1.318
61 183.00 1200.00 374 969 1.100 10000.000 0.000 1.318
62 186.00 1200.00 316 946 1.100 10000.000 0.000 1.318
63 189.00 1200.00 320 958 1.100 10000.000 0.000 1.318
64 192.00 1200.00 321 909 1.100 10000.000 0.000 1.318
65 195.00 1200.00 307 949 1.100 10000.000 0.000 1.318
66 198.00 1200.00 290 1017 1.100 10000.000 0.000 1.318
67 201.00 1200.00 294 982 1.100 10000.000 0.000 1.318
68 204.00 1200.00 320 976 1.100 10000.000 0.000 1.318
69 207.00 1200.00 302 929 1.100 10000.000 0.000 1.318
70 210.00 1200.00 349 965 1.100 10000.000 0.000 1.318
71 213.00 1200.00 304 958 1.100 10000.000 0.000 1.318
72 216.00 1200.00 304 1054 1.100 10000.000 0.000 1.318
73 219.00 1200.00 287 982 1.100 10000.000 0.000 1.318
74 222.00 1200.00 319 960 1.100 10000.000 0.000 1.318
75 225.00 1200.00 344 1024 1.100 10000.000 0.000 1.318
76 228.00 1200.00 315 955 1.100 10000.000 0.000 1.318
77 231.00 1200.00 320 918 1.100 10000.000 0.000 1.318
78 234.00 1200.00 302 1079 1.100 10000.000 0.000 1.318
79 237.00 1200.00 306 999 1.100 10000.000 0.000 1.318
80 240.00 1200.00 289 998 1.100 10000.000 0.000 1.318
81 243.00 1200.00 307 1041 1.100 10000.000 0.000 1.318
82 246.00 1200.00 317 1007 1.100 10000.000 0.000 1.318
83 249.00 1200.00 327 1000 1.100 10000.000 0.000 1.318
84 252.00 1200.00 319 976 1.100 10000.000 0.000 1.318
85 255.00 1200.00 313 1009 1.100 10000.000 0.000 1.318
86 258.00 1200.00 341 994 1.100 10000.000 0.000 1.318
87 261.00 1200.00 328 991 1.100 10000.000 0.000 1.318
88 264.00 1200.00 366 1007 1.100 10000.000 0.000 1.318
89 267.00 1200.00 332 993 1.100 10000.000 0.000 1.318
90 270.00 1200.00 322 1004 1.100 10000.000 0.000 1.318
91 273.00 1200.00 343 972 1.100 10000.000 0.000 1.318
92 276.00 1200.00 349 981 1.100 10000.000 0.000 1.318
93 279.00 1200.00 353 961 1.100 10000.000 0.000 1.318
94 282.00 1200.00 333 987 1.100 10000.000 0.000 1.318
95 285.00 1200.00 311 994 1.100 10000.000 0.000 1.318
96 288.00 1200.00 342 984 1.100 10000.000 0.000 1.318
97 291.00 1200.00 325 900 1.100 10000.000 0.000 1.318
98 294.00 1200.00 287 976 1.100 10000.000 0.000 1.318
99 297.00 1200.00 297 933 1.100 10000.000 0.000 1.318
100 300.00 1200.00 310 889 1.100 10000.000 0.000 1.318
101 303.00 1200.00 306 1007 1.100 10000.000 0.000 1.318
102 306.00 1200.00 364 985 1.100 10000.000 0.000 1.318
103 309.00 1200.00 333 1004 1.100 10000.000 0.000 1.318
104 312.00 1200.00 322 979 1.100 10000.000 0.000 1.318
105 315.00 1200.00 340 962 1.100 10000.000 0.000 1.318
106 318.00 1200.00 360 997 1.100 10000.000 0.000 1.318
107 321.00 1200.00 322 943 1.100 10000.000 0.000 1.318
108 324.00 1200.00 311 1046 1.100 10000.000 0.000 1.318
109 327.00 1200.00 324 993 1.100 10000.000 0.000 1.318
110 330.00 1200.00 346 1059 1.100 10000.000 0.000 1.318
111 333.00 1200.00 276 966 1.100 10000.000 0.000 1.318
112 336.00 1200.00 290 1048 1.100 10000.000 0.000 1.318
113 339.00 1200.00 350 991 1.100 10000.000 0.000 1.318
114 342.00 1200.00 316 1025 1.100 10000.000 0.000 1.318
115 345.00 1200.00 294 985 1.100 10000.000 0.000 1.318
116 348.00 1200.00 302 1030 1.100 10000.000 0.000 1.318
117 351.00 1200.00 306 1087 1.100 10000.000 0.000 1.318
118 354.00 1200.00 315 998 1.100 10000.000 0.000 1.318
119 357.00 1200.00 303 957 1.100 10000.000 0.000 1.318
120 360.00 1200.00 301 1011 1.100 10000.000 0.000 1.318
121 363.00 1200.00 313 1024 1.100 10000.000 0.000 1.318
122 366.00 1200.00 324 1028 1.100 10000.000 0.000 1.318
123 369.00 1200.00 303 1006 1.100 10000.000 0.000 1.318
124 372.00 1200.00 310 959 1.100 10000.000 0.000 1.318
125 375.00 1200.00 345 983 1.100 10000.000 0.000 1.318
126 378.00 1200.00 366 962 1.100 10000.000 0.000 1.318
127 381.00 1200.00 347 1014 1.100 10000.000 0.000 1.318
128 384.00 1200.00 345 979 1.100 10000.000 0.000 1.318
129 387.00 1200.00 350 956 1.100 10000.000 0.000 1.318
130 390.00 1200.00 349 986 1.100 10000.000 0.000 1.318
131 393.00 1200.00 368 971 1.100 10000.000 0.000 1.318
132 396.00 1200.00 354 973 1.100 10000.000 0.000 1.318
133 399.00 1200.00 320 941 1.100 10000.000 0.000 1.318
134 402.00 1200.00 360 987 1.100 10000.000 0.000 1.318
135 405.00 1200.00 334 919 1.100 10000.000 0.000 1.318
136 408.00 1200.00 336 1017 1.100 10000.000 0.000 1.318
137 411.00 1200.00 328 942 1.100 10000.000 0.000 1.318
138 414.00 1200.00 319 992 1.100 10000.000 0.000 1.318
139 417.00 1200.00 359 1037 1.100 10000.000 0.000 1.318
140 420.00 1200.00 340 1014 1.100 10000.000 0.000 1.318
141 423.00 1200.00 311 986 1.100 10000.000 0.000 1.318
142 426.00 1200.00 323 1001 1.100 10000.000 0.000 1.318
143 429.00 1200.00 354 1024 1.100 10000.000 0.000 1.318
144 432.00 1200.00 312 1018 1.100 10000.000 0.000 1.318
