# BinNR microsec tot-time (s)  O-Beam AUX Ampl(V) f(Hz) phase(deg) chi(pos)
0 0.00 1200.03 99 335 1.100 10000.000 0.000 -1.000
1 3.00 1200.03 217 777 1.100 10000.000 0.000 -1.000
2 6.00 1200.03 217 787 1.100 10000.000 0.000 -1.000
3 9.00 1200.03 205 748 1.100 10000.000 0.000 -1.000
4 12.00 1200.03 216 743 1.100 10000.000 0.000 -1.000
5 15.00 1200.03 212 679 1.100 10000.000 0.000 -1.000
6 18.00 1200.03 196 729 1.100 10000.000 0.000 -1.000
7 21.00 1200.03 183 698 1.100 10000.000 0.000 -1.000
8 24.00 1200.03 204 778 1.100 10000.000 0.000 -1.000
9 27.00 1200.03 206 728 1.100 10000.000 0.000 -1.000
10 30.00 1200.03 191 724 1.100 10000.000 0.000 -1.000
11 33.00 1200.03 204 738 1.100 10000.000 0.000 -1.000
12 36.00 1200.03 198 806 1.100 10000.000 0.000 -1.000
13 39.00 1200.03 209 875 1.100 10000.000 0.000 -1.000
14 42.00 1200.03 185 781 1.100 10000.000 0.000 -1.000
15 45.00 1200.03 189 825 1.100 10000.000 0.000 -1.000
16 48.00 1200.03 213 792 1.100 10000.000 0.000 -1.000
17 51.00 1200.03 211 801 1.100 10000.000 0.000 -1.000
18 54.00 1200.03 216 758 1.100 10000.000 0.000 -1.000
19 57.00 1200.03 233 765 1.100 10000.000 0.000 -1.000
20 60.00 1200.03 256 746 1.100 10000.000 0.000 -1.000
21 63.00 1200.03 209 761 1.100 10000.000 0.000 -1.000
22 66.00 1200.03 225 760 1.100 10000.000 0.000 -1.000
23 69.00 1200.03 211 686 1.100 10000.000 0.000 -1.000
24 72.00 1200.03 248 704 1.100 10000.000 0.000 -1.000
25 75.00 1200.03 243 722 1.100 10000.000 0.000 -1.000
26 78.00 1200.03 252 759 1.100 10000.000 0.000 -1.000
27 81.00 1200.03 232 646 1.100 10000.000 0.000 -1.000
28 84.00 1200.03 229 686 1.100 10000.000 0.000 -1.000
29 87.00 1200.03 217 637 1.100 10000.000 0.000 -1.000
30 90.00 1200.03 259 634 1.100 10000.000 0.000 -1.000
31 93.00 1200.03 234 637 1.100 10000.000 0.000 -1.000
32 96.00 1200.03 242 681 1.100 10000.000 0.000 -1.000
33 99.00 1200.03 228 668 1.100 10000.000 0.000 -1.000
34 102.00 1200.03 215 667 1.100 10000.000 0.000 -1.000
35 105.00 1200.03 211 655 1.100 10000.000 0.000 -1.000
36 108.00 1200.03 210 736 1.100 10000.000 0.000 -1.000
37 111.00 1200.03 222 725 1.100 10000.000 0.000 -1.000
38 114.00 1200.03 166 786 1.100 10000.000 0.000 -1.000
39 117.00 1200.03 212 731 1.100 10000.000 0.000 -1.000
40 120.00 1200.03 215 771 1.100 10000.000 0.000 -1.000
41 123.00 1200.03 187 807 1.100 10000.000 0.000 -1.000
42 126.00 1200.03 195 772 1.100 10000.000 0.000 -1.000
43 129.00 1200.03 209 764 1.100 10000.000 0.000 -1.000
44 132.00 1200.03 182 753 1.100 10000.000 0.000 -1.000
45 135.00 1200.03 215 766 1.100 10000.000 0.000 -1.000
46 138.00 1200.03 198 787 1.100 10000.000 0.000 -1.000
47 141.00 1200.03 216 836 1.100 10000.000 0.000 -1.000
48 144.00 1200.03 220 823 1.100 10000.000 0.000 -1.000
49 147.00 1200.03 216 760 1.100 10000.000 0.000 -1.000
50 150.00 1200.03 209 771 1.100 10000.000 0.000 -1.000
51 153.00 1200.03 194 770 1.100 10000.000 0.000 -1.000
52 156.00 1200.03 211 837 1.100 10000.000 0.000 -1.000
53 159.00 1200.03 212 687 1.100 10000.000 0.000 -1.000
54 162.00 1200.03 247 749 1.100 10000.000 0.000 -1.000
55 165.00 1200.03 210 705 1.100 10000.000 0.000 -1.000
56 168.00 1200.03 214 770 1.100 10000.000 0.000 -1.000
57 171.00 1200.03 235 649 1.100 10000.000 0.000 -1.000
58 174.00 1200.03 250 702 1.100 10000.000 0.000 -1.000
59 177.00 1200.03 261 651 1.100 10000.000 0.000 -1.000
60 180.00 1200.03 248 710 1.100 10000.000 0.000 -1.000
61 183.00 1200.03 252 654 1.100 10000.000 0.000 -1.000
62 186.00 1200.03 235 694 1.100 10000.000 0.000 -1.000
63 189.00 1200.03 223 699 1.100 10000.000 0.000 -1.000
64 192.00 1200.03 228 664 1.100 10000.000 0.000 -1.000
65 195.00 1200.03 245 645 1.100 10000.000 0.000 -1.000
66 198.00 1200.03 231 707 1.100 10000.000 0.000 -1.000
67 201.00 1200.03 213 662 1.100 10000.000 0.000 -1.000
68 204.00 1200.03 244 672 1.100 10000.000 0.000 -1.000
69 207.00 1200.03 225 713 1.100 10000.000 0.000 -1.000
70 210.00 1200.03 214 738 1.100 10000.000 0.000 -1.000
71 213.00 1200.03 205 770 1.100 10000.000 0.000 -1.000
72 216.00 1200.03 204 754 1.100 10000.000 0.000 -1.000
73 219.00 1200.03 191 705 1.100 10000.000 0.000 -1.000
74 222.00 1200.03 214 742 1.100 10000.000 0.000 -1.000
75 225.00 1200.03 160 789 1.100 10000.000 0.000 -1.000
76 228.00 1200.03 194 783 1.100 10000.000 0.000 -1.000
77 231.00 1200.03 183 790 1.100 10000.000 0.000 -1.000
78 234.00 1200.03 200 814 1.100 10000.000 0.000 -1.000
79 237.00 1200.03 196 791 1.100 10000.000 0.000 -1.000
80 240.00 1200.03 201 794 1.100 10000.000 0.000 -1.000
81 243.00 1200.03 186 802 1.100 10000.000 0.000 -1.000
82 246.00 1200.03 218 793 1.100 10000.000 0.000 -1.000
83 249.00 1200.03 182 762 1.100 10000.000 0.000 -1.000
84 252.00 1200.03 220 831 1.100 10000.000 0.000 -1.000
85 255.00 1200.03 222 751 1.100 10000.000 0.000 -1.000
86 258.00 1200.03 251 764 1.100 10000.000 0.000 -1.000
87 261.00 1200.03 224 728 1.100 10000.000 0.000 -1.000
88 264.00 1200.03 237 723 1.100 10000.000 0.000 -1.000
89 267.00 1200.03 233 711 1.100 10000.000 0.000 -1.000
90 270.00 1200.03 226 741 1.100 10000.000 0.000 -1.000
91 273.00 1200.03 216 711 1.100 10000.000 0.000 -1.000
92 276.00 1200.03 236 693 1.100 10000.000 0.000 -1.000
93 279.00 1200.03 268 696 1.100 10000.000 0.000 -1.000
94 282.00 1200.03 216 651 1.100 10000.000 0.000 -1.000
95 285.00 1200.03 204 643 1.100 10000.000 0.000 -1.000
96 288.00 1200.03 216 686 1.100 10000.000 0.000 -1.000
97 291.00 1200.03 226 611 1.100 10000.000 0.000 -1.000
98 294.00 1200.03 213 720 1.100 10000.000 0.000 -1.000
99 297.00 1200.03 213 697 1.100 10000.000 0.000 -1.000
100 300.00 1200.03 204 691 1.100 10000.000 0.000 -1.000
101 303.00 1200.03 219 692 1.100 10000.000 0.000 -1.000
102 306.00 1200.03 241 696 1.100 10000.000 0.000 -1.000
103 309.00 1200.03 214 679 1.100 10000.000 0.000 -1.000
104 312.00 1200.03 239 727 1.100 10000.000 0.000 -1.000
105 315.00 1200.03 220 714 1.100 10000.000 0.000 -1.000
106 318.00 1200.03 244 763 1.100 10000.000 0.000 -1.000
107 321.00 1200.03 230 728 1.100 10000.000 0.000 -1.000
108 324.00 1200.03 237 800 1.100 10000.000 0.000 -1.000
109 327.00 1200.03 220 754 1.100 10000.000 0.000 -1.000
110 330.00 1200.03 237 804 1.100 10000.000 0.000 -1.000
111 333.00 1200.03 212 761 1.100 10000.000 0.000 -1.000
112 336.00 1200.03 213 819 1.100 10000.000 0.000 -1.000
113 339.00 1200.03 199 810 1.100 10000.000 0.000 -1.000
114 342.00 1200.03 192 796 1.100 10000.000 0.000 -1.000
115 345.00 1200.03 220 881 1.100 10000.000 0.000 -1.000
116 348.00 1200.03 198 796 1.100 10000.000 0.000 -1.000
117 351.00 1200.03 195 840 1.100 10000.000 0.000 -1.000
118 354.00 1200.03 193 813 1.100 10000.000 0.000 -1.000
119 357.00 1200.03 169 679 1.100 10000.000 0.000 -1.000
120 360.00 1200.03 196 746 1.100 10000.000 0.000 -1.000
121 363.00 1200.03 200 707 1.100 10000.000 0.000 -1.000
122 366.00 1200.03 194 739 1.100 10000.000 0.000 -1.000
123 369.00 1200.03 205 731 1.100 10000.000 0.000 -1.000
124 372.00 1200.03 224 703 1.100 10000.000 0.000 -1.000
125 375.00 1200.03 205 648 1.100 10000.000 0.000 -1.000
126 378.00 1200.03 222 682 1.100 10000.000 0.000 -1.000
127 381.00 1200.03 233 628 1.100 10000.000 0.000 -1.000
128 384.00 1200.03 219 639 1.100 10000.000 0.000 -1.000
129 387.00 1200.03 239 669 1.100 10000.000 0.000 -1.000
130 390.00 1200.03 222 661 1.100 10000.000 0.000 -1.000
131 393.00 1200.03 230 663 1.100 10000.000 0.000 -1.000
132 396.00 1200.03 246 697 1.100 10000.000 0.000 -1.000
133 399.00 1200.03 222 707 1.100 10000.000 0.000 -1.000
134 402.00 1200.03 243 710 1.100 10000.000 0.000 -1.000
135 405.00 1200.03 236 676 1.100 10000.000 0.000 -1.000
136 408.00 1200.03 241 681 1.100 10000.000 0.000 -1.000
137 411.00 1200.03 240 688 1.100 10000.000 0.000 -1.000
138 414.00 1200.03 253 738 1.100 10000.000 0.000 -1.000
139 417.00 1200.03 237 765 1.100 10000.000 0.000 -1.000
140 420.00 1200.03 246 775 1.100 10000.000 0.000 -1.000
141 423.00 1200.03 240 747 1.100 10000.000 0.000 -1.000
142 426.00 1200.03 253 815 1.100 10000.000 0.000 -1.000
143 429.00 1200.03 213 720 1.100 10000.000 0.000 -1.000
144 432.00 1200.03 222 804 1.100 10000.000 0.000 -1.000
