# BinNR microsec tot-time (s)  O-Beam AUX Ampl(V) f(Hz) phase(deg) chi(pos)
0 0.00 1500.03 163 545 1.520 10000.000 0.000 1.505
1 3.00 1500.03 291 1070 1.520 10000.000 0.000 1.505
2 6.00 1500.03 321 1148 1.520 10000.000 0.000 1.505
3 9.00 1500.03 318 1128 1.520 10000.000 0.000 1.505
4 12.00 1500.03 294 1076 1.520 10000.000 0.000 1.505
5 15.00 1500.03 268 1064 1.520 10000.000 0.000 1.505
6 18.00 1500.03 242 1062 1.520 10000.000 0.000 1.505
7 21.00 1500.03 264 1042 1.520 10000.000 0.000 1.505
8 24.00 1500.03 252 980 1.520 10000.000 0.000 1.505
9 27.00 1500.03 214 985 1.520 10000.000 0.000 1.505
10 30.00 1500.03 230 911 1.520 10000.000 0.000 1.505
11 33.00 1500.03 210 930 1.520 10000.000 0.000 1.505
12 36.00 1500.03 230 925 1.520 10000.000 0.000 1.505
13 39.00 1500.03 230 955 1.520 10000.000 0.000 1.505
14 42.00 1500.03 229 945 1.520 10000.000 0.000 1.505
15 45.00 1500.03 269 977 1.520 10000.000 0.000 1.505
16 48.00 1500.03 254 1077 1.520 10000.000 0.000 1.505
17 51.00 1500.03 238 1022 1.520 10000.000 0.000 1.505
18 54.00 1500.03 260 1085 1.520 10000.000 0.000 1.505
19 57.00 1500.03 270 1047 1.520 10000.000 0.000 1.505
20 60.00 1500.03 295 1116 1.520 10000.000 0.000 1.505
21 63.00 1500.03 289 1006 1.520 10000.000 0.000 1.505
22 66.00 1500.03 290 1061 1.520 10000.000 0.000 1.505
23 69.00 1500.03 320 1019 1.520 10000.000 0.000 1.505
24 72.00 1500.03 315 961 1.520 10000.000 0.000 1.505
25 75.00 1500.03 364 930 1.520 10000.000 0.000 1.505
26 78.00 1500.03 334 824 1.520 10000.000 0.000 1.505
27 81.00 1500.03 338 809 1.520 10000.000 0.000 1.505
28 84.00 1500.03 329 767 1.520 10000.000 0.000 1.505
29 87.00 1500.03 358 700 1.520 10000.000 0.000 1.505
30 90.00 1500.03 339 685 1.520 10000.000 0.000 1.505
31 93.00 1500.03 349 651 1.520 10000.000 0.000 1.505
32 96.00 1500.03 355 591 1.520 10000.000 0.000 1.505
33 99.00 1500.03 347 611 1.520 10000.000 0.000 1.505
34 102.00 1500.03 326 601 1.520 10000.000 0.000 1.505
35 105.00 1500.03 326 617 1.520 10000.000 0.000 1.505
36 108.00 1500.03 320 700 1.520 10000.000 0.000 1.505
37 111.00 1500.03 283 674 1.520 10000.000 0.000 1.505
38 114.00 1500.03 274 730 1.520 10000.000 0.000 1.505
39 117.00 1500.03 251 788 1.520 10000.000 0.000 1.505
40 120.00 1500.03 262 887 1.520 10000.000 0.000 1.505
41 123.00 1500.03 253 893 1.520 10000.000 0.000 1.505
42 126.00 1500.03 226 978 1.520 10000.000 0.000 1.505
43 129.00 1500.03 230 1001 1.520 10000.000 0.000 1.505
44 132.00 1500.03 208 1091 1.520 10000.000 0.000 1.505
45 135.00 1500.03 253 1041 1.520 10000.000 0.000 1.505
46 138.00 1500.03 212 1133 1.520 10000.000 0.000 1.505
47 141.00 1500.03 221 1084 1.520 10000.000 0.000 1.505
48 144.00 1500.03 263 1178 1.520 10000.000 0.000 1.505
49 147.00 1500.03 254 1149 1.520 10000.000 0.000 1.505
50 150.00 1500.03 257 1140 1.520 10000.000 0.000 1.505
51 153.00 1500.03 249 1124 1.520 10000.000 0.000 1.505
52 156.00 1500.03 273 1193 1.520 10000.000 0.000 1.505
53 159.00 1500.03 290 1112 1.520 10000.000 0.000 1.505
54 162.00 1500.03 281 1083 1.520 10000.000 0.000 1.505
55 165.00 1500.03 331 1042 1.520 10000.000 0.000 1.505
56 168.00 1500.03 281 1013 1.520 10000.000 0.000 1.505
57 171.00 1500.03 322 1001 1.520 10000.000 0.000 1.505
58 174.00 1500.03 315 924 1.520 10000.000 0.000 1.505
59 177.00 1500.03 319 883 1.520 10000.000 0.000 1.505
60 180.00 1500.03 315 773 1.520 10000.000 0.000 1.505
61 183.00 1500.03 358 697 1.520 10000.000 0.000 1.505
62 186.00 1500.03 357 740 1.520 10000.000 0.000 1.505
63 189.00 1500.03 384 694 1.520 10000.000 0.000 1.505
64 192.00 1500.03 383 641 1.520 10000.000 0.000 1.505
65 195.00 1500.03 327 621 1.520 10000.000 0.000 1.505
66 198.00 1500.03 340 598 1.520 10000.000 0.000 1.505
67 201.00 1500.03 299 577 1.520 10000.000 0.000 1.505
68 204.00 1500.03 325 602 1.520 10000.000 0.000 1.505
69 207.00 1500.03 285 655 1.520 10000.000 0.000 1.505
70 210.00 1500.03 269 653 1.520 10000.000 0.000 1.505
71 213.00 1500.03 285 679 1.520 10000.000 0.000 1.505
72 216.00 1500.03 278 791 1.520 10000.000 0.000 1.505
73 219.00 1500.03 242 924 1.520 10000.000 0.000 1.505
74 222.00 1500.03 228 901 1.520 10000.000 0.000 1.505
75 225.00 1500.03 208 906 1.520 10000.000 0.000 1.505
76 228.00 1500.03 227 1008 1.520 10000.000 0.000 1.505
77 231.00 1500.03 208 1054 1.520 10000.000 0.000 1.505
78 234.00 1500.03 213 1161 1.520 10000.000 0.000 1.505
79 237.00 1500.03 238 1079 1.520 10000.000 0.000 1.505
80 240.00 1500.03 221 1200 1.520 10000.000 0.000 1.505
81 243.00 1500.03 200 1156 1.520 10000.000 0.000 1.505
82 246.00 1500.03 232 1182 1.520 10000.000 0.000 1.505
83 249.00 1500.03 263 1139 1.520 10000.000 0.000 1.505
84 252.00 1500.03 246 1178 1.520 10000.000 0.000 1.505
85 255.00 1500.03 296 1097 1.520 10000.000 0.000 1.505
86 258.00 1500.03 279 1174 1.520 10000.000 0.000 1.505
87 261.00 1500.03 267 1073 1.520 10000.000 0.000 1.505
88 264.00 1500.03 321 1146 1.520 10000.000 0.000 1.505
89 267.00 1500.03 344 1052 1.520 10000.000 0.000 1.505
90 270.00 1500.03 315 1052 1.520 10000.000 0.000 1.505
91 273.00 1500.03 303 920 1.520 10000.000 0.000 1.505
92 276.00 1500.03 318 847 1.520 10000.000 0.000 1.505
93 279.00 1500.03 315 801 1.520 10000.000 0.000 1.505
94 282.00 1500.03 325 797 1.520 10000.000 0.000 1.505
95 285.00 1500.03 285 742 1.520 10000.000 0.000 1.505
96 288.00 1500.03 349 681 1.520 10000.000 0.000 1.505
97 291.00 1500.03 287 648 1.520 10000.000 0.000 1.505
98 294.00 1500.03 337 622 1.520 10000.000 0.000 1.505
99 297.00 1500.03 309 624 1.520 10000.000 0.000 1.505
100 300.00 1500.03 327 603 1.520 10000.000 0.000 1.505
101 303.00 1500.03 298 618 1.520 10000.000 0.000 1.505
102 306.00 1500.03 316 677 1.520 10000.000 0.000 1.505
103 309.00 1500.03 307 658 1.520 10000.000 0.000 1.505
104 312.00 1500.03 305 746 1.520 10000.000 0.000 1.505
105 315.00 1500.03 322 738 1.520 10000.000 0.000 1.505
106 318.00 1500.03 324 814 1.520 10000.000 0.000 1.505
107 321.00 1500.03 310 835 1.520 10000.000 0.000 1.505
108 324.00 1500.03 352 933 1.520 10000.000 0.000 1.505
109 327.00 1500.03 311 925 1.520 10000.000 0.000 1.505
110 330.00 1500.03 340 1060 1.520 10000.000 0.000 1.505
111 333.00 1500.03 329 1112 1.520 10000.000 0.000 1.505
112 336.00 1500.03 353 1114 1.520 10000.000 0.000 1.505
113 339.00 1500.03 300 1131 1.520 10000.000 0.000 1.505
114 342.00 1500.03 306 1144 1.520 10000.000 0.000 1.505
115 345.00 1500.03 266 1184 1.520 10000.000 0.000 1.505
116 348.00 1500.03 278 1159 1.520 10000.000 0.000 1.505
117 351.00 1500.03 262 1154 1.520 10000.000 0.000 1.505
118 354.00 1500.03 261 1129 1.520 10000.000 0.000 1.505
119 357.00 1500.03 254 1144 1.520 10000.000 0.000 1.505
120 360.00 1500.03 223 1124 1.520 10000.000 0.000 1.505
121 363.00 1500.03 231 1056 1.520 10000.000 0.000 1.505
122 366.00 1500.03 239 1034 1.520 10000.000 0.000 1.505
123 369.00 1500.03 227 1057 1.520 10000.000 0.000 1.505
124 372.00 1500.03 231 980 1.520 10000.000 0.000 1.505
125 375.00 1500.03 240 891 1.520 10000.000 0.000 1.505
126 378.00 1500.03 230 878 1.520 10000.000 0.000 1.505
127 381.00 1500.03 213 715 1.520 10000.000 0.000 1.505
128 384.00 1500.03 241 745 1.520 10000.000 0.000 1.505
129 387.00 1500.03 260 633 1.520 10000.000 0.000 1.505
130 390.00 1500.03 251 644 1.520 10000.000 0.000 1.505
131 393.00 1500.03 260 628 1.520 10000.000 0.000 1.505
132 396.00 1500.03 288 583 1.520 10000.000 0.000 1.505
133 399.00 1500.03 329 591 1.520 10000.000 0.000 1.505
134 402.00 1500.03 323 633 1.520 10000.000 0.000 1.505
135 405.00 1500.03 339 563 1.520 10000.000 0.000 1.505
136 408.00 1500.03 337 661 1.520 10000.000 0.000 1.505
137 411.00 1500.03 328 733 1.520 10000.000 0.000 1.505
138 414.00 1500.03 338 738 1.520 10000.000 0.000 1.505
139 417.00 1500.03 326 820 1.520 10000.000 0.000 1.505
140 420.00 1500.03 359 871 1.520 10000.000 0.000 1.505
141 423.00 1500.03 360 928 1.520 10000.000 0.000 1.505
142 426.00 1500.03 381 974 1.520 10000.000 0.000 1.505
143 429.00 1500.03 316 1016 1.520 10000.000 0.000 1.505
144 432.00 1500.03 327 1065 1.520 10000.000 0.000 1.505
