# BinNR microsec tot-time (s)  O-Beam AUX Ampl(V) f(Hz) phase(deg) chi(pos)
0 0.00 1500.01 84 93 1.520 10000.000 0.000 0.670
1 3.00 1500.01 171 183 1.520 10000.000 0.000 0.670
2 6.00 1500.01 165 178 1.520 10000.000 0.000 0.670
3 9.00 1500.01 185 226 1.520 10000.000 0.000 0.670
4 12.00 1500.01 207 170 1.520 10000.000 0.000 0.670
5 15.00 1500.01 194 198 1.520 10000.000 0.000 0.670
6 18.00 1500.01 224 183 1.520 10000.000 0.000 0.670
7 21.00 1500.01 225 221 1.520 10000.000 0.000 0.670
8 24.00 1500.01 239 230 1.520 10000.000 0.000 0.670
9 27.00 1500.01 233 237 1.520 10000.000 0.000 0.670
10 30.00 1500.01 246 263 1.520 10000.000 0.000 0.670
11 33.00 1500.01 248 239 1.520 10000.000 0.000 0.670
12 36.00 1500.01 264 236 1.520 10000.000 0.000 0.670
13 39.00 1500.01 250 227 1.520 10000.000 0.000 0.670
14 42.00 1500.01 261 228 1.520 10000.000 0.000 0.670
15 45.00 1500.01 232 213 1.520 10000.000 0.000 0.670
16 48.00 1500.01 238 200 1.520 10000.000 0.000 0.670
17 51.00 1500.01 224 182 1.520 10000.000 0.000 0.670
18 54.00 1500.01 229 200 1.520 10000.000 0.000 0.670
19 57.00 1500.01 233 177 1.520 10000.000 0.000 0.670
20 60.00 1500.01 213 192 1.520 10000.000 0.000 0.670
21 63.00 1500.01 193 195 1.520 10000.000 0.000 0.670
22 66.00 1500.01 226 201 1.520 10000.000 0.000 0.670
23 69.00 1500.01 169 209 1.520 10000.000 0.000 0.670
24 72.00 1500.01 168 261 1.520 10000.000 0.000 0.670
25 75.00 1500.01 167 262 1.520 10000.000 0.000 0.670
26 78.00 1500.01 156 283 1.520 10000.000 0.000 0.670
27 81.00 1500.01 153 347 1.520 10000.000 0.000 0.670
28 84.00 1500.01 159 355 1.520 10000.000 0.000 0.670
29 87.00 1500.01 173 396 1.520 10000.000 0.000 0.670
30 90.00 1500.01 135 453 1.520 10000.000 0.000 0.670
31 93.00 1500.01 142 475 1.520 10000.000 0.000 0.670
32 96.00 1500.01 160 466 1.520 10000.000 0.000 0.670
33 99.00 1500.01 152 514 1.520 10000.000 0.000 0.670
34 102.00 1500.01 169 486 1.520 10000.000 0.000 0.670
35 105.00 1500.01 151 415 1.520 10000.000 0.000 0.670
36 108.00 1500.01 185 422 1.520 10000.000 0.000 0.670
37 111.00 1500.01 187 389 1.520 10000.000 0.000 0.670
38 114.00 1500.01 219 390 1.520 10000.000 0.000 0.670
39 117.00 1500.01 209 337 1.520 10000.000 0.000 0.670
40 120.00 1500.01 226 256 1.520 10000.000 0.000 0.670
41 123.00 1500.01 249 232 1.520 10000.000 0.000 0.670
42 126.00 1500.01 242 236 1.520 10000.000 0.000 0.670
43 129.00 1500.01 243 201 1.520 10000.000 0.000 0.670
44 132.00 1500.01 252 188 1.520 10000.000 0.000 0.670
45 135.00 1500.01 241 189 1.520 10000.000 0.000 0.670
46 138.00 1500.01 273 188 1.520 10000.000 0.000 0.670
47 141.00 1500.01 244 190 1.520 10000.000 0.000 0.670
48 144.00 1500.01 280 182 1.520 10000.000 0.000 0.670
49 147.00 1500.01 236 191 1.520 10000.000 0.000 0.670
50 150.00 1500.01 239 173 1.520 10000.000 0.000 0.670
51 153.00 1500.01 242 197 1.520 10000.000 0.000 0.670
52 156.00 1500.01 229 156 1.520 10000.000 0.000 0.670
53 159.00 1500.01 212 154 1.520 10000.000 0.000 0.670
54 162.00 1500.01 195 212 1.520 10000.000 0.000 0.670
55 165.00 1500.01 178 192 1.520 10000.000 0.000 0.670
56 168.00 1500.01 201 239 1.520 10000.000 0.000 0.670
57 171.00 1500.01 164 215 1.520 10000.000 0.000 0.670
58 174.00 1500.01 195 270 1.520 10000.000 0.000 0.670
59 177.00 1500.01 145 269 1.520 10000.000 0.000 0.670
60 180.00 1500.01 169 329 1.520 10000.000 0.000 0.670
61 183.00 1500.01 155 389 1.520 10000.000 0.000 0.670
62 186.00 1500.01 142 424 1.520 10000.000 0.000 0.670
63 189.00 1500.01 146 448 1.520 10000.000 0.000 0.670
64 192.00 1500.01 141 451 1.520 10000.000 0.000 0.670
65 195.00 1500.01 153 480 1.520 10000.000 0.000 0.670
66 198.00 1500.01 166 464 1.520 10000.000 0.000 0.670
67 201.00 1500.01 137 465 1.520 10000.000 0.000 0.670
68 204.00 1500.01 160 488 1.520 10000.000 0.000 0.670
69 207.00 1500.01 166 431 1.520 10000.000 0.000 0.670
70 210.00 1500.01 203 421 1.520 10000.000 0.000 0.670
71 213.00 1500.01 206 381 1.520 10000.000 0.000 0.670
72 216.00 1500.01 197 368 1.520 10000.000 0.000 0.670
73 219.00 1500.01 211 269 1.520 10000.000 0.000 0.670
74 222.00 1500.01 235 267 1.520 10000.000 0.000 0.670
75 225.00 1500.01 247 217 1.520 10000.000 0.000 0.670
76 228.00 1500.01 254 220 1.520 10000.000 0.000 0.670
77 231.00 1500.01 215 184 1.520 10000.000 0.000 0.670
78 234.00 1500.01 278 195 1.520 10000.000 0.000 0.670
79 237.00 1500.01 246 169 1.520 10000.000 0.000 0.670
80 240.00 1500.01 262 186 1.520 10000.000 0.000 0.670
81 243.00 1500.01 249 190 1.520 10000.000 0.000 0.670
82 246.00 1500.01 265 197 1.520 10000.000 0.000 0.670
83 249.00 1500.01 231 171 1.520 10000.000 0.000 0.670
84 252.00 1500.01 237 199 1.520 10000.000 0.000 0.670
85 255.00 1500.01 251 193 1.520 10000.000 0.000 0.670
86 258.00 1500.01 193 177 1.520 10000.000 0.000 0.670
87 261.00 1500.01 204 185 1.520 10000.000 0.000 0.670
88 264.00 1500.01 201 201 1.520 10000.000 0.000 0.670
89 267.00 1500.01 203 185 1.520 10000.000 0.000 0.670
90 270.00 1500.01 189 196 1.520 10000.000 0.000 0.670
91 273.00 1500.01 171 238 1.520 10000.000 0.000 0.670
92 276.00 1500.01 148 269 1.520 10000.000 0.000 0.670
93 279.00 1500.01 162 300 1.520 10000.000 0.000 0.670
94 282.00 1500.01 146 351 1.520 10000.000 0.000 0.670
95 285.00 1500.01 153 370 1.520 10000.000 0.000 0.670
96 288.00 1500.01 180 436 1.520 10000.000 0.000 0.670
97 291.00 1500.01 211 471 1.520 10000.000 0.000 0.670
98 294.00 1500.01 180 455 1.520 10000.000 0.000 0.670
99 297.00 1500.01 176 454 1.520 10000.000 0.000 0.670
100 300.00 1500.01 182 504 1.520 10000.000 0.000 0.670
101 303.00 1500.01 209 468 1.520 10000.000 0.000 0.670
102 306.00 1500.01 186 456 1.520 10000.000 0.000 0.670
103 309.00 1500.01 177 444 1.520 10000.000 0.000 0.670
104 312.00 1500.01 167 400 1.520 10000.000 0.000 0.670
105 315.00 1500.01 171 357 1.520 10000.000 0.000 0.670
106 318.00 1500.01 173 303 1.520 10000.000 0.000 0.670
107 321.00 1500.01 158 243 1.520 10000.000 0.000 0.670
108 324.00 1500.01 158 244 1.520 10000.000 0.000 0.670
109 327.00 1500.01 174 222 1.520 10000.000 0.000 0.670
110 330.00 1500.01 190 197 1.520 10000.000 0.000 0.670
111 333.00 1500.01 127 211 1.520 10000.000 0.000 0.670
112 336.00 1500.01 145 189 1.520 10000.000 0.000 0.670
113 339.00 1500.01 158 193 1.520 10000.000 0.000 0.670
114 342.00 1500.01 178 204 1.520 10000.000 0.000 0.670
115 345.00 1500.01 212 195 1.520 10000.000 0.000 0.670
116 348.00 1500.01 184 195 1.520 10000.000 0.000 0.670
117 351.00 1500.01 208 204 1.520 10000.000 0.000 0.670
118 354.00 1500.01 208 185 1.520 10000.000 0.000 0.670
119 357.00 1500.01 221 187 1.520 10000.000 0.000 0.670
120 360.00 1500.01 236 161 1.520 10000.000 0.000 0.670
121 363.00 1500.01 265 196 1.520 10000.000 0.000 0.670
122 366.00 1500.01 245 213 1.520 10000.000 0.000 0.670
123 369.00 1500.01 248 211 1.520 10000.000 0.000 0.670
124 372.00 1500.01 241 241 1.520 10000.000 0.000 0.670
125 375.00 1500.01 242 281 1.520 10000.000 0.000 0.670
126 378.00 1500.01 222 283 1.520 10000.000 0.000 0.670
127 381.00 1500.01 210 328 1.520 10000.000 0.000 0.670
128 384.00 1500.01 233 422 1.520 10000.000 0.000 0.670
129 387.00 1500.01 221 410 1.520 10000.000 0.000 0.670
130 390.00 1500.01 227 446 1.520 10000.000 0.000 0.670
131 393.00 1500.01 194 474 1.520 10000.000 0.000 0.670
132 396.00 1500.01 203 482 1.520 10000.000 0.000 0.670
133 399.00 1500.01 202 497 1.520 10000.000 0.000 0.670
134 402.00 1500.01 202 466 1.520 10000.000 0.000 0.670
135 405.00 1500.01 176 475 1.520 10000.000 0.000 0.670
136 408.00 1500.01 186 456 1.520 10000.000 0.000 0.670
137 411.00 1500.01 186 399 1.520 10000.000 0.000 0.670
138 414.00 1500.01 160 344 1.520 10000.000 0.000 0.670
139 417.00 1500.01 156 321 1.520 10000.000 0.000 0.670
140 420.00 1500.01 172 259 1.520 10000.000 0.000 0.670
141 423.00 1500.01 156 255 1.520 10000.000 0.000 0.670
142 426.00 1500.01 138 241 1.520 10000.000 0.000 0.670
143 429.00 1500.01 141 204 1.520 10000.000 0.000 0.670
144 432.00 1500.01 141 181 1.520 10000.000 0.000 0.670
