# BinNR microsec tot-time (s)  O-Beam AUX Ampl(V) f(Hz) phase(deg) chi(pos)
0 0.00 1500.01 115 206 1.520 10000.000 0.000 -1.505
1 3.00 1500.01 250 322 1.520 10000.000 0.000 -1.505
2 6.00 1500.01 247 352 1.520 10000.000 0.000 -1.505
3 9.00 1500.01 292 297 1.520 10000.000 0.000 -1.505
4 12.00 1500.01 276 396 1.520 10000.000 0.000 -1.505
5 15.00 1500.01 319 393 1.520 10000.000 0.000 -1.505
6 18.00 1500.01 321 416 1.520 10000.000 0.000 -1.505
7 21.00 1500.01 339 503 1.520 10000.000 0.000 -1.505
8 24.00 1500.01 382 527 1.520 10000.000 0.000 -1.505
9 27.00 1500.01 353 556 1.520 10000.000 0.000 -1.505
10 30.00 1500.01 381 564 1.520 10000.000 0.000 -1.505
11 33.00 1500.01 355 579 1.520 10000.000 0.000 -1.505
12 36.00 1500.01 361 599 1.520 10000.000 0.000 -1.505
13 39.00 1500.01 361 527 1.520 10000.000 0.000 -1.505
14 42.00 1500.01 386 549 1.520 10000.000 0.000 -1.505
15 45.00 1500.01 375 461 1.520 10000.000 0.000 -1.505
16 48.00 1500.01 312 501 1.520 10000.000 0.000 -1.505
17 51.00 1500.01 305 418 1.520 10000.000 0.000 -1.505
18 54.00 1500.01 337 364 1.520 10000.000 0.000 -1.505
19 57.00 1500.01 321 402 1.520 10000.000 0.000 -1.505
20 60.00 1500.01 300 398 1.520 10000.000 0.000 -1.505
21 63.00 1500.01 260 407 1.520 10000.000 0.000 -1.505
22 66.00 1500.01 264 433 1.520 10000.000 0.000 -1.505
23 69.00 1500.01 288 486 1.520 10000.000 0.000 -1.505
24 72.00 1500.01 258 560 1.520 10000.000 0.000 -1.505
25 75.00 1500.01 236 565 1.520 10000.000 0.000 -1.505
26 78.00 1500.01 210 668 1.520 10000.000 0.000 -1.505
27 81.00 1500.01 217 695 1.520 10000.000 0.000 -1.505
28 84.00 1500.01 218 803 1.520 10000.000 0.000 -1.505
29 87.00 1500.01 244 858 1.520 10000.000 0.000 -1.505
30 90.00 1500.01 196 925 1.520 10000.000 0.000 -1.505
31 93.00 1500.01 210 937 1.520 10000.000 0.000 -1.505
32 96.00 1500.01 224 989 1.520 10000.000 0.000 -1.505
33 99.00 1500.01 212 918 1.520 10000.000 0.000 -1.505
34 102.00 1500.01 243 958 1.520 10000.000 0.000 -1.505
35 105.00 1500.01 260 867 1.520 10000.000 0.000 -1.505
36 108.00 1500.01 273 832 1.520 10000.000 0.000 -1.505
37 111.00 1500.01 291 815 1.520 10000.000 0.000 -1.505
38 114.00 1500.01 340 771 1.520 10000.000 0.000 -1.505
39 117.00 1500.01 314 737 1.520 10000.000 0.000 -1.505
40 120.00 1500.01 348 655 1.520 10000.000 0.000 -1.505
41 123.00 1500.01 372 599 1.520 10000.000 0.000 -1.505
42 126.00 1500.01 343 480 1.520 10000.000 0.000 -1.505
43 129.00 1500.01 370 462 1.520 10000.000 0.000 -1.505
44 132.00 1500.01 390 446 1.520 10000.000 0.000 -1.505
45 135.00 1500.01 382 364 1.520 10000.000 0.000 -1.505
46 138.00 1500.01 377 344 1.520 10000.000 0.000 -1.505
47 141.00 1500.01 362 330 1.520 10000.000 0.000 -1.505
48 144.00 1500.01 355 281 1.520 10000.000 0.000 -1.505
49 147.00 1500.01 378 298 1.520 10000.000 0.000 -1.505
50 150.00 1500.01 344 302 1.520 10000.000 0.000 -1.505
51 153.00 1500.01 333 348 1.520 10000.000 0.000 -1.505
52 156.00 1500.01 307 335 1.520 10000.000 0.000 -1.505
53 159.00 1500.01 286 346 1.520 10000.000 0.000 -1.505
54 162.00 1500.01 265 397 1.520 10000.000 0.000 -1.505
55 165.00 1500.01 265 444 1.520 10000.000 0.000 -1.505
56 168.00 1500.01 244 508 1.520 10000.000 0.000 -1.505
57 171.00 1500.01 283 497 1.520 10000.000 0.000 -1.505
58 174.00 1500.01 233 591 1.520 10000.000 0.000 -1.505
59 177.00 1500.01 226 656 1.520 10000.000 0.000 -1.505
60 180.00 1500.01 205 717 1.520 10000.000 0.000 -1.505
61 183.00 1500.01 222 747 1.520 10000.000 0.000 -1.505
62 186.00 1500.01 235 838 1.520 10000.000 0.000 -1.505
63 189.00 1500.01 231 838 1.520 10000.000 0.000 -1.505
64 192.00 1500.01 233 971 1.520 10000.000 0.000 -1.505
65 195.00 1500.01 213 926 1.520 10000.000 0.000 -1.505
66 198.00 1500.01 231 894 1.520 10000.000 0.000 -1.505
67 201.00 1500.01 224 976 1.520 10000.000 0.000 -1.505
68 204.00 1500.01 283 956 1.520 10000.000 0.000 -1.505
69 207.00 1500.01 274 813 1.520 10000.000 0.000 -1.505
70 210.00 1500.01 312 833 1.520 10000.000 0.000 -1.505
71 213.00 1500.01 271 745 1.520 10000.000 0.000 -1.505
72 216.00 1500.01 334 743 1.520 10000.000 0.000 -1.505
73 219.00 1500.01 332 676 1.520 10000.000 0.000 -1.505
74 222.00 1500.01 355 587 1.520 10000.000 0.000 -1.505
75 225.00 1500.01 353 495 1.520 10000.000 0.000 -1.505
76 228.00 1500.01 297 499 1.520 10000.000 0.000 -1.505
77 231.00 1500.01 370 397 1.520 10000.000 0.000 -1.505
78 234.00 1500.01 345 361 1.520 10000.000 0.000 -1.505
79 237.00 1500.01 399 356 1.520 10000.000 0.000 -1.505
80 240.00 1500.01 373 345 1.520 10000.000 0.000 -1.505
81 243.00 1500.01 324 309 1.520 10000.000 0.000 -1.505
82 246.00 1500.01 327 310 1.520 10000.000 0.000 -1.505
83 249.00 1500.01 348 293 1.520 10000.000 0.000 -1.505
84 252.00 1500.01 311 292 1.520 10000.000 0.000 -1.505
85 255.00 1500.01 289 295 1.520 10000.000 0.000 -1.505
86 258.00 1500.01 327 347 1.520 10000.000 0.000 -1.505
87 261.00 1500.01 290 338 1.520 10000.000 0.000 -1.505
88 264.00 1500.01 284 411 1.520 10000.000 0.000 -1.505
89 267.00 1500.01 278 416 1.520 10000.000 0.000 -1.505
90 270.00 1500.01 256 500 1.520 10000.000 0.000 -1.505
91 273.00 1500.01 255 597 1.520 10000.000 0.000 -1.505
92 276.00 1500.01 233 607 1.520 10000.000 0.000 -1.505
93 279.00 1500.01 214 705 1.520 10000.000 0.000 -1.505
94 282.00 1500.01 237 744 1.520 10000.000 0.000 -1.505
95 285.00 1500.01 260 797 1.520 10000.000 0.000 -1.505
96 288.00 1500.01 287 889 1.520 10000.000 0.000 -1.505
97 291.00 1500.01 279 939 1.520 10000.000 0.000 -1.505
98 294.00 1500.01 285 968 1.520 10000.000 0.000 -1.505
99 297.00 1500.01 270 934 1.520 10000.000 0.000 -1.505
100 300.00 1500.01 283 881 1.520 10000.000 0.000 -1.505
101 303.00 1500.01 274 915 1.520 10000.000 0.000 -1.505
102 306.00 1500.01 297 904 1.520 10000.000 0.000 -1.505
103 309.00 1500.01 261 863 1.520 10000.000 0.000 -1.505
104 312.00 1500.01 282 808 1.520 10000.000 0.000 -1.505
105 315.00 1500.01 254 754 1.520 10000.000 0.000 -1.505
106 318.00 1500.01 226 699 1.520 10000.000 0.000 -1.505
107 321.00 1500.01 248 628 1.520 10000.000 0.000 -1.505
108 324.00 1500.01 237 560 1.520 10000.000 0.000 -1.505
109 327.00 1500.01 223 464 1.520 10000.000 0.000 -1.505
110 330.00 1500.01 279 429 1.520 10000.000 0.000 -1.505
111 333.00 1500.01 240 407 1.520 10000.000 0.000 -1.505
112 336.00 1500.01 263 345 1.520 10000.000 0.000 -1.505
113 339.00 1500.01 251 334 1.520 10000.000 0.000 -1.505
114 342.00 1500.01 284 309 1.520 10000.000 0.000 -1.505
115 345.00 1500.01 282 313 1.520 10000.000 0.000 -1.505
116 348.00 1500.01 312 292 1.520 10000.000 0.000 -1.505
117 351.00 1500.01 330 312 1.520 10000.000 0.000 -1.505
118 354.00 1500.01 328 341 1.520 10000.000 0.000 -1.505
119 357.00 1500.01 318 350 1.520 10000.000 0.000 -1.505
120 360.00 1500.01 394 329 1.520 10000.000 0.000 -1.505
121 363.00 1500.01 348 383 1.520 10000.000 0.000 -1.505
122 366.00 1500.01 410 457 1.520 10000.000 0.000 -1.505
123 369.00 1500.01 378 518 1.520 10000.000 0.000 -1.505
124 372.00 1500.01 387 595 1.520 10000.000 0.000 -1.505
125 375.00 1500.01 372 602 1.520 10000.000 0.000 -1.505
126 378.00 1500.01 370 679 1.520 10000.000 0.000 -1.505
127 381.00 1500.01 342 780 1.520 10000.000 0.000 -1.505
128 384.00 1500.01 369 814 1.520 10000.000 0.000 -1.505
129 387.00 1500.01 302 829 1.520 10000.000 0.000 -1.505
130 390.00 1500.01 341 878 1.520 10000.000 0.000 -1.505
131 393.00 1500.01 309 918 1.520 10000.000 0.000 -1.505
132 396.00 1500.01 271 938 1.520 10000.000 0.000 -1.505
133 399.00 1500.01 247 959 1.520 10000.000 0.000 -1.505
134 402.00 1500.01 299 932 1.520 10000.000 0.000 -1.505
135 405.00 1500.01 245 875 1.520 10000.000 0.000 -1.505
136 408.00 1500.01 245 906 1.520 10000.000 0.000 -1.505
137 411.00 1500.01 241 819 1.520 10000.000 0.000 -1.505
138 414.00 1500.01 224 796 1.520 10000.000 0.000 -1.505
139 417.00 1500.01 216 722 1.520 10000.000 0.000 -1.505
140 420.00 1500.01 224 666 1.520 10000.000 0.000 -1.505
141 423.00 1500.01 220 569 1.520 10000.000 0.000 -1.505
142 426.00 1500.01 230 560 1.520 10000.000 0.000 -1.505
143 429.00 1500.01 225 404 1.520 10000.000 0.000 -1.505
144 432.00 1500.01 221 396 1.520 10000.000 0.000 -1.505
