# BinNR microsec tot-time (s)  O-Beam AUX Ampl(V) f(Hz) phase(deg) chi(pos)
0 0.00 1500.00 144 394 1.520 10000.000 0.000 0.154
1 3.00 1500.00 347 713 1.520 10000.000 0.000 0.154
2 6.00 1500.00 378 670 1.520 10000.000 0.000 0.154
3 9.00 1500.00 332 748 1.520 10000.000 0.000 0.154
4 12.00 1500.00 377 774 1.520 10000.000 0.000 0.154
5 15.00 1500.00 376 763 1.520 10000.000 0.000 0.154
6 18.00 1500.00 411 828 1.520 10000.000 0.000 0.154
7 21.00 1500.00 388 848 1.520 10000.000 0.000 0.154
8 24.00 1500.00 418 850 1.520 10000.000 0.000 0.154
9 27.00 1500.00 378 863 1.520 10000.000 0.000 0.154
10 30.00 1500.00 370 945 1.520 10000.000 0.000 0.154
11 33.00 1500.00 368 959 1.520 10000.000 0.000 0.154
12 36.00 1500.00 398 974 1.520 10000.000 0.000 0.154
13 39.00 1500.00 414 868 1.520 10000.000 0.000 0.154
14 42.00 1500.00 389 891 1.520 10000.000 0.000 0.154
15 45.00 1500.00 401 818 1.520 10000.000 0.000 0.154
16 48.00 1500.00 404 805 1.520 10000.000 0.000 0.154
17 51.00 1500.00 416 808 1.520 10000.000 0.000 0.154
18 54.00 1500.00 365 809 1.520 10000.000 0.000 0.154
19 57.00 1500.00 368 678 1.520 10000.000 0.000 0.154
20 60.00 1500.00 381 734 1.520 10000.000 0.000 0.154
21 63.00 1500.00 336 726 1.520 10000.000 0.000 0.154
22 66.00 1500.00 351 810 1.520 10000.000 0.000 0.154
23 69.00 1500.00 348 857 1.520 10000.000 0.000 0.154
24 72.00 1500.00 348 874 1.520 10000.000 0.000 0.154
25 75.00 1500.00 322 936 1.520 10000.000 0.000 0.154
26 78.00 1500.00 304 998 1.520 10000.000 0.000 0.154
27 81.00 1500.00 283 1072 1.520 10000.000 0.000 0.154
28 84.00 1500.00 294 1039 1.520 10000.000 0.000 0.154
29 87.00 1500.00 355 1089 1.520 10000.000 0.000 0.154
30 90.00 1500.00 291 1171 1.520 10000.000 0.000 0.154
31 93.00 1500.00 289 1138 1.520 10000.000 0.000 0.154
32 96.00 1500.00 316 1140 1.520 10000.000 0.000 0.154
33 99.00 1500.00 330 1222 1.520 10000.000 0.000 0.154
34 102.00 1500.00 324 1146 1.520 10000.000 0.000 0.154
35 105.00 1500.00 315 1154 1.520 10000.000 0.000 0.154
36 108.00 1500.00 351 1186 1.520 10000.000 0.000 0.154
37 111.00 1500.00 367 1142 1.520 10000.000 0.000 0.154
38 114.00 1500.00 394 1094 1.520 10000.000 0.000 0.154
39 117.00 1500.00 398 1056 1.520 10000.000 0.000 0.154
40 120.00 1500.00 394 1029 1.520 10000.000 0.000 0.154
41 123.00 1500.00 411 941 1.520 10000.000 0.000 0.154
42 126.00 1500.00 413 885 1.520 10000.000 0.000 0.154
43 129.00 1500.00 408 835 1.520 10000.000 0.000 0.154
44 132.00 1500.00 369 747 1.520 10000.000 0.000 0.154
45 135.00 1500.00 399 742 1.520 10000.000 0.000 0.154
46 138.00 1500.00 390 659 1.520 10000.000 0.000 0.154
47 141.00 1500.00 387 689 1.520 10000.000 0.000 0.154
48 144.00 1500.00 418 607 1.520 10000.000 0.000 0.154
49 147.00 1500.00 399 605 1.520 10000.000 0.000 0.154
50 150.00 1500.00 412 648 1.520 10000.000 0.000 0.154
51 153.00 1500.00 363 623 1.520 10000.000 0.000 0.154
52 156.00 1500.00 384 653 1.520 10000.000 0.000 0.154
53 159.00 1500.00 369 635 1.520 10000.000 0.000 0.154
54 162.00 1500.00 383 725 1.520 10000.000 0.000 0.154
55 165.00 1500.00 354 802 1.520 10000.000 0.000 0.154
56 168.00 1500.00 366 892 1.520 10000.000 0.000 0.154
57 171.00 1500.00 326 897 1.520 10000.000 0.000 0.154
58 174.00 1500.00 339 987 1.520 10000.000 0.000 0.154
59 177.00 1500.00 332 953 1.520 10000.000 0.000 0.154
60 180.00 1500.00 332 1044 1.520 10000.000 0.000 0.154
61 183.00 1500.00 317 1132 1.520 10000.000 0.000 0.154
62 186.00 1500.00 317 1076 1.520 10000.000 0.000 0.154
63 189.00 1500.00 333 1187 1.520 10000.000 0.000 0.154
64 192.00 1500.00 330 1166 1.520 10000.000 0.000 0.154
65 195.00 1500.00 335 1176 1.520 10000.000 0.000 0.154
66 198.00 1500.00 364 1123 1.520 10000.000 0.000 0.154
67 201.00 1500.00 331 1207 1.520 10000.000 0.000 0.154
68 204.00 1500.00 360 1176 1.520 10000.000 0.000 0.154
69 207.00 1500.00 377 1083 1.520 10000.000 0.000 0.154
70 210.00 1500.00 388 1141 1.520 10000.000 0.000 0.154
71 213.00 1500.00 368 1175 1.520 10000.000 0.000 0.154
72 216.00 1500.00 446 1016 1.520 10000.000 0.000 0.154
73 219.00 1500.00 393 1005 1.520 10000.000 0.000 0.154
74 222.00 1500.00 396 999 1.520 10000.000 0.000 0.154
75 225.00 1500.00 425 889 1.520 10000.000 0.000 0.154
76 228.00 1500.00 417 844 1.520 10000.000 0.000 0.154
77 231.00 1500.00 405 768 1.520 10000.000 0.000 0.154
78 234.00 1500.00 391 747 1.520 10000.000 0.000 0.154
79 237.00 1500.00 383 718 1.520 10000.000 0.000 0.154
80 240.00 1500.00 401 718 1.520 10000.000 0.000 0.154
81 243.00 1500.00 410 636 1.520 10000.000 0.000 0.154
82 246.00 1500.00 401 660 1.520 10000.000 0.000 0.154
83 249.00 1500.00 358 605 1.520 10000.000 0.000 0.154
84 252.00 1500.00 391 633 1.520 10000.000 0.000 0.154
85 255.00 1500.00 360 616 1.520 10000.000 0.000 0.154
86 258.00 1500.00 373 708 1.520 10000.000 0.000 0.154
87 261.00 1500.00 366 670 1.520 10000.000 0.000 0.154
88 264.00 1500.00 346 732 1.520 10000.000 0.000 0.154
89 267.00 1500.00 350 737 1.520 10000.000 0.000 0.154
90 270.00 1500.00 348 870 1.520 10000.000 0.000 0.154
91 273.00 1500.00 354 930 1.520 10000.000 0.000 0.154
92 276.00 1500.00 327 971 1.520 10000.000 0.000 0.154
93 279.00 1500.00 330 1081 1.520 10000.000 0.000 0.154
94 282.00 1500.00 341 1084 1.520 10000.000 0.000 0.154
95 285.00 1500.00 337 1127 1.520 10000.000 0.000 0.154
96 288.00 1500.00 383 1132 1.520 10000.000 0.000 0.154
97 291.00 1500.00 358 1143 1.520 10000.000 0.000 0.154
98 294.00 1500.00 359 1150 1.520 10000.000 0.000 0.154
99 297.00 1500.00 386 1197 1.520 10000.000 0.000 0.154
100 300.00 1500.00 359 1274 1.520 10000.000 0.000 0.154
101 303.00 1500.00 348 1238 1.520 10000.000 0.000 0.154
102 306.00 1500.00 341 1166 1.520 10000.000 0.000 0.154
103 309.00 1500.00 343 1095 1.520 10000.000 0.000 0.154
104 312.00 1500.00 379 1114 1.520 10000.000 0.000 0.154
105 315.00 1500.00 349 1097 1.520 10000.000 0.000 0.154
106 318.00 1500.00 370 1084 1.520 10000.000 0.000 0.154
107 321.00 1500.00 349 1005 1.520 10000.000 0.000 0.154
108 324.00 1500.00 340 940 1.520 10000.000 0.000 0.154
109 327.00 1500.00 329 892 1.520 10000.000 0.000 0.154
110 330.00 1500.00 387 852 1.520 10000.000 0.000 0.154
111 333.00 1500.00 360 755 1.520 10000.000 0.000 0.154
112 336.00 1500.00 351 723 1.520 10000.000 0.000 0.154
113 339.00 1500.00 339 674 1.520 10000.000 0.000 0.154
114 342.00 1500.00 387 619 1.520 10000.000 0.000 0.154
115 345.00 1500.00 373 599 1.520 10000.000 0.000 0.154
116 348.00 1500.00 373 644 1.520 10000.000 0.000 0.154
117 351.00 1500.00 336 651 1.520 10000.000 0.000 0.154
118 354.00 1500.00 409 673 1.520 10000.000 0.000 0.154
119 357.00 1500.00 395 674 1.520 10000.000 0.000 0.154
120 360.00 1500.00 386 689 1.520 10000.000 0.000 0.154
121 363.00 1500.00 373 754 1.520 10000.000 0.000 0.154
122 366.00 1500.00 421 818 1.520 10000.000 0.000 0.154
123 369.00 1500.00 407 833 1.520 10000.000 0.000 0.154
124 372.00 1500.00 408 867 1.520 10000.000 0.000 0.154
125 375.00 1500.00 427 1015 1.520 10000.000 0.000 0.154
126 378.00 1500.00 436 999 1.520 10000.000 0.000 0.154
127 381.00 1500.00 405 1032 1.520 10000.000 0.000 0.154
128 384.00 1500.00 414 1121 1.520 10000.000 0.000 0.154
129 387.00 1500.00 365 1088 1.520 10000.000 0.000 0.154
130 390.00 1500.00 373 1165 1.520 10000.000 0.000 0.154
131 393.00 1500.00 362 1172 1.520 10000.000 0.000 0.154
132 396.00 1500.00 386 1171 1.520 10000.000 0.000 0.154
133 399.00 1500.00 345 1199 1.520 10000.000 0.000 0.154
134 402.00 1500.00 364 1199 1.520 10000.000 0.000 0.154
135 405.00 1500.00 334 1146 1.520 10000.000 0.000 0.154
136 408.00 1500.00 312 1203 1.520 10000.000 0.000 0.154
137 411.00 1500.00 289 1114 1.520 10000.000 0.000 0.154
138 414.00 1500.00 324 1103 1.520 10000.000 0.000 0.154
139 417.00 1500.00 331 1033 1.520 10000.000 0.000 0.154
140 420.00 1500.00 325 1046 1.520 10000.000 0.000 0.154
141 423.00 1500.00 288 938 1.520 10000.000 0.000 0.154
142 426.00 1500.00 349 931 1.520 10000.000 0.000 0.154
143 429.00 1500.00 310 860 1.520 10000.000 0.000 0.154
144 432.00 1500.00 330 867 1.520 10000.000 0.000 0.154
