# BinNR microsec tot-time (s)  O-Beam AUX Ampl_1(V) f_1(Hz) phase_1(deg) Ampl_2(V) f_2(Hz) phase_2(deg) chi(pos)
0 0.00 1500.01 513 1701 0.740 10000.000 0.000 0.610 15000.000 0.000 1.505
1 3.00 1500.01 1075 3400 0.740 10000.000 0.000 0.610 15000.000 0.000 1.505
2 6.00 1500.01 1087 3430 0.740 10000.000 0.000 0.610 15000.000 0.000 1.505
3 9.00 1500.01 1076 3403 0.740 10000.000 0.000 0.610 15000.000 0.000 1.505
4 12.00 1500.01 989 3522 0.740 10000.000 0.000 0.610 15000.000 0.000 1.505
5 15.00 1500.01 1028 3386 0.740 10000.000 0.000 0.610 15000.000 0.000 1.505
6 18.00 1500.01 1099 3552 0.740 10000.000 0.000 0.610 15000.000 0.000 1.505
7 21.00 1500.01 969 3498 0.740 10000.000 0.000 0.610 15000.000 0.000 1.505
8 24.00 1500.01 1069 3597 0.740 10000.000 0.000 0.610 15000.000 0.000 1.505
9 27.00 1500.01 1000 3538 0.740 10000.000 0.000 0.610 15000.000 0.000 1.505
10 30.00 1500.01 1076 3608 0.740 10000.000 0.000 0.610 15000.000 0.000 1.505
11 33.00 1500.01 1090 3654 0.740 10000.000 0.000 0.610 15000.000 0.000 1.505
12 36.00 1500.01 1075 3549 0.740 10000.000 0.000 0.610 15000.000 0.000 1.505
13 39.00 1500.01 1017 3556 0.740 10000.000 0.000 0.610 15000.000 0.000 1.505
14 42.00 1500.01 999 3654 0.740 10000.000 0.000 0.610 15000.000 0.000 1.505
15 45.00 1500.01 1048 3418 0.740 10000.000 0.000 0.610 15000.000 0.000 1.505
16 48.00 1500.01 1098 3535 0.740 10000.000 0.000 0.610 15000.000 0.000 1.505
17 51.00 1500.01 1040 3508 0.740 10000.000 0.000 0.610 15000.000 0.000 1.505
18 54.00 1500.01 1065 3533 0.740 10000.000 0.000 0.610 15000.000 0.000 1.505
19 57.00 1500.01 1083 3473 0.740 10000.000 0.000 0.610 15000.000 0.000 1.505
20 60.00 1500.01 1090 3462 0.740 10000.000 0.000 0.610 15000.000 0.000 1.505
21 63.00 1500.01 1042 3544 0.740 10000.000 0.000 0.610 15000.000 0.000 1.505
22 66.00 1500.01 1007 3570 0.740 10000.000 0.000 0.610 15000.000 0.000 1.505
23 69.00 1500.01 1067 3459 0.740 10000.000 0.000 0.610 15000.000 0.000 1.505
24 72.00 1500.01 1140 3601 0.740 10000.000 0.000 0.610 15000.000 0.000 1.505
25 75.00 1500.01 1021 3517 0.740 10000.000 0.000 0.610 15000.000 0.000 1.505
26 78.00 1500.01 1069 3574 0.740 10000.000 0.000 0.610 15000.000 0.000 1.505
27 81.00 1500.01 1063 3456 0.740 10000.000 0.000 0.610 15000.000 0.000 1.505
28 84.00 1500.01 1007 3474 0.740 10000.000 0.000 0.610 15000.000 0.000 1.505
29 87.00 1500.01 1063 3379 0.740 10000.000 0.000 0.610 15000.000 0.000 1.505
30 90.00 1500.01 1051 3416 0.740 10000.000 0.000 0.610 15000.000 0.000 1.505
31 93.00 1500.01 1079 3420 0.740 10000.000 0.000 0.610 15000.000 0.000 1.505
32 96.00 1500.01 1057 3400 0.740 10000.000 0.000 0.610 15000.000 0.000 1.505
33 99.00 1500.01 1085 3481 0.740 10000.000 0.000 0.610 15000.000 0.000 1.505
34 102.00 1500.01 1053 3510 0.740 10000.000 0.000 0.610 15000.000 0.000 1.505
35 105.00 1500.01 1012 3619 0.740 10000.000 0.000 0.610 15000.000 0.000 1.505
36 108.00 1500.01 1045 3596 0.740 10000.000 0.000 0.610 15000.000 0.000 1.505
37 111.00 1500.01 1034 3755 0.740 10000.000 0.000 0.610 15000.000 0.000 1.505
38 114.00 1500.01 1048 3548 0.740 10000.000 0.000 0.610 15000.000 0.000 1.505
39 117.00 1500.01 1008 3507 0.740 10000.000 0.000 0.610 15000.000 0.000 1.505
40 120.00 1500.01 1038 3513 0.740 10000.000 0.000 0.610 15000.000 0.000 1.505
41 123.00 1500.01 1062 3515 0.740 10000.000 0.000 0.610 15000.000 0.000 1.505
42 126.00 1500.01 1091 3573 0.740 10000.000 0.000 0.610 15000.000 0.000 1.505
43 129.00 1500.01 1025 3460 0.740 10000.000 0.000 0.610 15000.000 0.000 1.505
44 132.00 1500.01 1082 3473 0.740 10000.000 0.000 0.610 15000.000 0.000 1.505
45 135.00 1500.01 1097 3653 0.740 10000.000 0.000 0.610 15000.000 0.000 1.505
46 138.00 1500.01 1036 3589 0.740 10000.000 0.000 0.610 15000.000 0.000 1.505
47 141.00 1500.01 1090 3479 0.740 10000.000 0.000 0.610 15000.000 0.000 1.505
48 144.00 1500.01 1079 3663 0.740 10000.000 0.000 0.610 15000.000 0.000 1.505
49 147.00 1500.01 1058 3554 0.740 10000.000 0.000 0.610 15000.000 0.000 1.505
50 150.00 1500.01 1070 3532 0.740 10000.000 0.000 0.610 15000.000 0.000 1.505
51 153.00 1500.01 1065 3397 0.740 10000.000 0.000 0.610 15000.000 0.000 1.505
52 156.00 1500.01 1083 3633 0.740 10000.000 0.000 0.610 15000.000 0.000 1.505
53 159.00 1500.01 1068 3543 0.740 10000.000 0.000 0.610 15000.000 0.000 1.505
54 162.00 1500.01 1045 3539 0.740 10000.000 0.000 0.610 15000.000 0.000 1.505
55 165.00 1500.01 1075 3450 0.740 10000.000 0.000 0.610 15000.000 0.000 1.505
56 168.00 1500.01 1050 3551 0.740 10000.000 0.000 0.610 15000.000 0.000 1.505
57 171.00 1500.01 1034 3561 0.740 10000.000 0.000 0.610 15000.000 0.000 1.505
58 174.00 1500.01 1073 3518 0.740 10000.000 0.000 0.610 15000.000 0.000 1.505
59 177.00 1500.01 1047 3439 0.740 10000.000 0.000 0.610 15000.000 0.000 1.505
60 180.00 1500.01 1066 3555 0.740 10000.000 0.000 0.610 15000.000 0.000 1.505
61 183.00 1500.01 1054 3546 0.740 10000.000 0.000 0.610 15000.000 0.000 1.505
62 186.00 1500.01 1144 3661 0.740 10000.000 0.000 0.610 15000.000 0.000 1.505
63 189.00 1500.01 1091 3463 0.740 10000.000 0.000 0.610 15000.000 0.000 1.505
64 192.00 1500.01 1091 3521 0.740 10000.000 0.000 0.610 15000.000 0.000 1.505
65 195.00 1500.01 1075 3422 0.740 10000.000 0.000 0.610 15000.000 0.000 1.505
66 198.00 1500.01 1063 3683 0.740 10000.000 0.000 0.610 15000.000 0.000 1.505
67 201.00 1500.01 1049 3528 0.740 10000.000 0.000 0.610 15000.000 0.000 1.505
68 204.00 1500.01 1018 3553 0.740 10000.000 0.000 0.610 15000.000 0.000 1.505
69 207.00 1500.01 1044 3413 0.740 10000.000 0.000 0.610 15000.000 0.000 1.505
70 210.00 1500.01 1090 3566 0.740 10000.000 0.000 0.610 15000.000 0.000 1.505
71 213.00 1500.01 1052 3397 0.740 10000.000 0.000 0.610 15000.000 0.000 1.505
72 216.00 1500.01 1031 3620 0.740 10000.000 0.000 0.610 15000.000 0.000 1.505
73 219.00 1500.01 1011 3562 0.740 10000.000 0.000 0.610 15000.000 0.000 1.505
74 222.00 1500.01 1082 3606 0.740 10000.000 0.000 0.610 15000.000 0.000 1.505
75 225.00 1500.01 1002 3575 0.740 10000.000 0.000 0.610 15000.000 0.000 1.505
76 228.00 1500.01 1085 3646 0.740 10000.000 0.000 0.610 15000.000 0.000 1.505
77 231.00 1500.01 997 3509 0.740 10000.000 0.000 0.610 15000.000 0.000 1.505
78 234.00 1500.01 1037 3562 0.740 10000.000 0.000 0.610 15000.000 0.000 1.505
79 237.00 1500.01 1028 3444 0.740 10000.000 0.000 0.610 15000.000 0.000 1.505
80 240.00 1500.01 1045 3442 0.740 10000.000 0.000 0.610 15000.000 0.000 1.505
81 243.00 1500.01 1014 3263 0.740 10000.000 0.000 0.610 15000.000 0.000 1.505
82 246.00 1500.01 1061 3283 0.740 10000.000 0.000 0.610 15000.000 0.000 1.505
83 249.00 1500.01 1043 3317 0.740 10000.000 0.000 0.610 15000.000 0.000 1.505
84 252.00 1500.01 1050 3379 0.740 10000.000 0.000 0.610 15000.000 0.000 1.505
85 255.00 1500.01 1104 3302 0.740 10000.000 0.000 0.610 15000.000 0.000 1.505
86 258.00 1500.01 1097 3385 0.740 10000.000 0.000 0.610 15000.000 0.000 1.505
87 261.00 1500.01 1054 3475 0.740 10000.000 0.000 0.610 15000.000 0.000 1.505
88 264.00 1500.01 1129 3676 0.740 10000.000 0.000 0.610 15000.000 0.000 1.505
89 267.00 1500.01 1031 3587 0.740 10000.000 0.000 0.610 15000.000 0.000 1.505
90 270.00 1500.01 1068 3627 0.740 10000.000 0.000 0.610 15000.000 0.000 1.505
91 273.00 1500.01 1026 3543 0.740 10000.000 0.000 0.610 15000.000 0.000 1.505
92 276.00 1500.01 1078 3528 0.740 10000.000 0.000 0.610 15000.000 0.000 1.505
93 279.00 1500.01 1064 3601 0.740 10000.000 0.000 0.610 15000.000 0.000 1.505
94 282.00 1500.01 1037 3405 0.740 10000.000 0.000 0.610 15000.000 0.000 1.505
95 285.00 1500.01 967 3296 0.740 10000.000 0.000 0.610 15000.000 0.000 1.505
96 288.00 1500.01 1101 3570 0.740 10000.000 0.000 0.610 15000.000 0.000 1.505
97 291.00 1500.01 1083 3390 0.740 10000.000 0.000 0.610 15000.000 0.000 1.505
98 294.00 1500.01 1133 3586 0.740 10000.000 0.000 0.610 15000.000 0.000 1.505
99 297.00 1500.01 1081 3511 0.740 10000.000 0.000 0.610 15000.000 0.000 1.505
100 300.00 1500.01 1088 3486 0.740 10000.000 0.000 0.610 15000.000 0.000 1.505
101 303.00 1500.01 1100 3436 0.740 10000.000 0.000 0.610 15000.000 0.000 1.505
102 306.00 1500.01 1049 3522 0.740 10000.000 0.000 0.610 15000.000 0.000 1.505
103 309.00 1500.01 1068 3526 0.740 10000.000 0.000 0.610 15000.000 0.000 1.505
104 312.00 1500.01 1043 3539 0.740 10000.000 0.000 0.610 15000.000 0.000 1.505
105 315.00 1500.01 1082 3519 0.740 10000.000 0.000 0.610 15000.000 0.000 1.505
106 318.00 1500.01 1026 3508 0.740 10000.000 0.000 0.610 15000.000 0.000 1.505
107 321.00 1500.01 1043 3571 0.740 10000.000 0.000 0.610 15000.000 0.000 1.505
108 324.00 1500.01 1009 3545 0.740 10000.000 0.000 0.610 15000.000 0.000 1.505
109 327.00 1500.01 1025 3518 0.740 10000.000 0.000 0.610 15000.000 0.000 1.505
110 330.00 1500.01 1083 3658 0.740 10000.000 0.000 0.610 15000.000 0.000 1.505
111 333.00 1500.01 1016 3520 0.740 10000.000 0.000 0.610 15000.000 0.000 1.505
112 336.00 1500.01 1062 3719 0.740 10000.000 0.000 0.610 15000.000 0.000 1.505
113 339.00 1500.01 1077 3620 0.740 10000.000 0.000 0.610 15000.000 0.000 1.505
114 342.00 1500.01 1001 3631 0.740 10000.000 0.000 0.610 15000.000 0.000 1.505
115 345.00 1500.01 1047 3562 0.740 10000.000 0.000 0.610 15000.000 0.000 1.505
116 348.00 1500.01 1077 3491 0.740 10000.000 0.000 0.610 15000.000 0.000 1.505
117 351.00 1500.01 1035 3505 0.740 10000.000 0.000 0.610 15000.000 0.000 1.505
118 354.00 1500.01 1069 3592 0.740 10000.000 0.000 0.610 15000.000 0.000 1.505
119 357.00 1500.01 1019 3542 0.740 10000.000 0.000 0.610 15000.000 0.000 1.505
120 360.00 1500.01 1079 3688 0.740 10000.000 0.000 0.610 15000.000 0.000 1.505
121 363.00 1500.01 1036 3513 0.740 10000.000 0.000 0.610 15000.000 0.000 1.505
122 366.00 1500.01 1082 3525 0.740 10000.000 0.000 0.610 15000.000 0.000 1.505
123 369.00 1500.01 1072 3484 0.740 10000.000 0.000 0.610 15000.000 0.000 1.505
124 372.00 1500.01 1109 3507 0.740 10000.000 0.000 0.610 15000.000 0.000 1.505
125 375.00 1500.01 1058 3396 0.740 10000.000 0.000 0.610 15000.000 0.000 1.505
126 378.00 1500.01 1091 3489 0.740 10000.000 0.000 0.610 15000.000 0.000 1.505
127 381.00 1500.01 1071 3572 0.740 10000.000 0.000 0.610 15000.000 0.000 1.505
128 384.00 1500.01 1062 3531 0.740 10000.000 0.000 0.610 15000.000 0.000 1.505
129 387.00 1500.01 1017 3555 0.740 10000.000 0.000 0.610 15000.000 0.000 1.505
130 390.00 1500.01 1102 3607 0.740 10000.000 0.000 0.610 15000.000 0.000 1.505
131 393.00 1500.01 1088 3410 0.740 10000.000 0.000 0.610 15000.000 0.000 1.505
132 396.00 1500.01 1018 3586 0.740 10000.000 0.000 0.610 15000.000 0.000 1.505
133 399.00 1500.01 1092 3505 0.740 10000.000 0.000 0.610 15000.000 0.000 1.505
134 402.00 1500.01 1043 3483 0.740 10000.000 0.000 0.610 15000.000 0.000 1.505
135 405.00 1500.01 1029 3472 0.740 10000.000 0.000 0.610 15000.000 0.000 1.505
136 408.00 1500.01 1108 3420 0.740 10000.000 0.000 0.610 15000.000 0.000 1.505
137 411.00 1500.01 1064 3406 0.740 10000.000 0.000 0.610 15000.000 0.000 1.505
138 414.00 1500.01 1116 3530 0.740 10000.000 0.000 0.610 15000.000 0.000 1.505
139 417.00 1500.01 1078 3590 0.740 10000.000 0.000 0.610 15000.000 0.000 1.505
140 420.00 1500.01 1054 3621 0.740 10000.000 0.000 0.610 15000.000 0.000 1.505
141 423.00 1500.01 1005 3558 0.740 10000.000 0.000 0.610 15000.000 0.000 1.505
142 426.00 1500.01 1086 3557 0.740 10000.000 0.000 0.610 15000.000 0.000 1.505
143 429.00 1500.01 1045 3481 0.740 10000.000 0.000 0.610 15000.000 0.000 1.505
144 432.00 1500.01 1070 3679 0.740 10000.000 0.000 0.610 15000.000 0.000 1.505
