# BinNR microsec tot-time (s)  O-Beam AUX Ampl_1(V) f_1(Hz) phase_1(deg) Ampl_2(V) f_2(Hz) phase_2(deg) chi(pos)
0 0.00 1500.03 600 1892 0.740 10000.000 0.000 0.610 15000.000 0.000 -0.341
1 3.00 1500.03 1181 3704 0.740 10000.000 0.000 0.610 15000.000 0.000 -0.341
2 6.00 1500.03 1188 3833 0.740 10000.000 0.000 0.610 15000.000 0.000 -0.341
3 9.00 1500.03 1200 3790 0.740 10000.000 0.000 0.610 15000.000 0.000 -0.341
4 12.00 1500.03 1233 3808 0.740 10000.000 0.000 0.610 15000.000 0.000 -0.341
5 15.00 1500.03 1216 3879 0.740 10000.000 0.000 0.610 15000.000 0.000 -0.341
6 18.00 1500.03 1248 3856 0.740 10000.000 0.000 0.610 15000.000 0.000 -0.341
7 21.00 1500.03 1217 3910 0.740 10000.000 0.000 0.610 15000.000 0.000 -0.341
8 24.00 1500.03 1239 4051 0.740 10000.000 0.000 0.610 15000.000 0.000 -0.341
9 27.00 1500.03 1194 3909 0.740 10000.000 0.000 0.610 15000.000 0.000 -0.341
10 30.00 1500.03 1191 4030 0.740 10000.000 0.000 0.610 15000.000 0.000 -0.341
11 33.00 1500.03 1170 3988 0.740 10000.000 0.000 0.610 15000.000 0.000 -0.341
12 36.00 1500.03 1198 4046 0.740 10000.000 0.000 0.610 15000.000 0.000 -0.341
13 39.00 1500.03 1082 4039 0.740 10000.000 0.000 0.610 15000.000 0.000 -0.341
14 42.00 1500.03 1239 4147 0.740 10000.000 0.000 0.610 15000.000 0.000 -0.341
15 45.00 1500.03 1213 3954 0.740 10000.000 0.000 0.610 15000.000 0.000 -0.341
16 48.00 1500.03 1169 4029 0.740 10000.000 0.000 0.610 15000.000 0.000 -0.341
17 51.00 1500.03 1173 3918 0.740 10000.000 0.000 0.610 15000.000 0.000 -0.341
18 54.00 1500.03 1180 3917 0.740 10000.000 0.000 0.610 15000.000 0.000 -0.341
19 57.00 1500.03 1166 3806 0.740 10000.000 0.000 0.610 15000.000 0.000 -0.341
20 60.00 1500.03 1218 3960 0.740 10000.000 0.000 0.610 15000.000 0.000 -0.341
21 63.00 1500.03 1194 3948 0.740 10000.000 0.000 0.610 15000.000 0.000 -0.341
22 66.00 1500.03 1206 3831 0.740 10000.000 0.000 0.610 15000.000 0.000 -0.341
23 69.00 1500.03 1121 3924 0.740 10000.000 0.000 0.610 15000.000 0.000 -0.341
24 72.00 1500.03 1203 4044 0.740 10000.000 0.000 0.610 15000.000 0.000 -0.341
25 75.00 1500.03 1075 4003 0.740 10000.000 0.000 0.610 15000.000 0.000 -0.341
26 78.00 1500.03 1166 3936 0.740 10000.000 0.000 0.610 15000.000 0.000 -0.341
27 81.00 1500.03 1185 3812 0.740 10000.000 0.000 0.610 15000.000 0.000 -0.341
28 84.00 1500.03 1151 3852 0.740 10000.000 0.000 0.610 15000.000 0.000 -0.341
29 87.00 1500.03 1134 3801 0.740 10000.000 0.000 0.610 15000.000 0.000 -0.341
30 90.00 1500.03 1171 3973 0.740 10000.000 0.000 0.610 15000.000 0.000 -0.341
31 93.00 1500.03 1094 3726 0.740 10000.000 0.000 0.610 15000.000 0.000 -0.341
32 96.00 1500.03 1194 3976 0.740 10000.000 0.000 0.610 15000.000 0.000 -0.341
33 99.00 1500.03 1196 3818 0.740 10000.000 0.000 0.610 15000.000 0.000 -0.341
34 102.00 1500.03 1224 3885 0.740 10000.000 0.000 0.610 15000.000 0.000 -0.341
35 105.00 1500.03 1190 3764 0.740 10000.000 0.000 0.610 15000.000 0.000 -0.341
36 108.00 1500.03 1253 3940 0.740 10000.000 0.000 0.610 15000.000 0.000 -0.341
37 111.00 1500.03 1254 3898 0.740 10000.000 0.000 0.610 15000.000 0.000 -0.341
38 114.00 1500.03 1226 3992 0.740 10000.000 0.000 0.610 15000.000 0.000 -0.341
39 117.00 1500.03 1174 3851 0.740 10000.000 0.000 0.610 15000.000 0.000 -0.341
40 120.00 1500.03 1167 4058 0.740 10000.000 0.000 0.610 15000.000 0.000 -0.341
41 123.00 1500.03 1189 3854 0.740 10000.000 0.000 0.610 15000.000 0.000 -0.341
42 126.00 1500.03 1153 3939 0.740 10000.000 0.000 0.610 15000.000 0.000 -0.341
43 129.00 1500.03 1201 3833 0.740 10000.000 0.000 0.610 15000.000 0.000 -0.341
44 132.00 1500.03 1240 3837 0.740 10000.000 0.000 0.610 15000.000 0.000 -0.341
45 135.00 1500.03 1167 3849 0.740 10000.000 0.000 0.610 15000.000 0.000 -0.341
46 138.00 1500.03 1231 4002 0.740 10000.000 0.000 0.610 15000.000 0.000 -0.341
47 141.00 1500.03 1254 3910 0.740 10000.000 0.000 0.610 15000.000 0.000 -0.341
48 144.00 1500.03 1197 3964 0.740 10000.000 0.000 0.610 15000.000 0.000 -0.341
49 147.00 1500.03 1162 3994 0.740 10000.000 0.000 0.610 15000.000 0.000 -0.341
50 150.00 1500.03 1231 3995 0.740 10000.000 0.000 0.610 15000.000 0.000 -0.341
51 153.00 1500.03 1216 3931 0.740 10000.000 0.000 0.610 15000.000 0.000 -0.341
52 156.00 1500.03 1200 3982 0.740 10000.000 0.000 0.610 15000.000 0.000 -0.341
53 159.00 1500.03 1221 3917 0.740 10000.000 0.000 0.610 15000.000 0.000 -0.341
54 162.00 1500.03 1204 4001 0.740 10000.000 0.000 0.610 15000.000 0.000 -0.341
55 165.00 1500.03 1253 3860 0.740 10000.000 0.000 0.610 15000.000 0.000 -0.341
56 168.00 1500.03 1194 3837 0.740 10000.000 0.000 0.610 15000.000 0.000 -0.341
57 171.00 1500.03 1215 3846 0.740 10000.000 0.000 0.610 15000.000 0.000 -0.341
58 174.00 1500.03 1186 3868 0.740 10000.000 0.000 0.610 15000.000 0.000 -0.341
59 177.00 1500.03 1201 3891 0.740 10000.000 0.000 0.610 15000.000 0.000 -0.341
60 180.00 1500.03 1263 4049 0.740 10000.000 0.000 0.610 15000.000 0.000 -0.341
61 183.00 1500.03 1214 3976 0.740 10000.000 0.000 0.610 15000.000 0.000 -0.341
62 186.00 1500.03 1181 3941 0.740 10000.000 0.000 0.610 15000.000 0.000 -0.341
63 189.00 1500.03 1255 3877 0.740 10000.000 0.000 0.610 15000.000 0.000 -0.341
64 192.00 1500.03 1162 4065 0.740 10000.000 0.000 0.610 15000.000 0.000 -0.341
65 195.00 1500.03 1224 3920 0.740 10000.000 0.000 0.610 15000.000 0.000 -0.341
66 198.00 1500.03 1228 3924 0.740 10000.000 0.000 0.610 15000.000 0.000 -0.341
67 201.00 1500.03 1164 3911 0.740 10000.000 0.000 0.610 15000.000 0.000 -0.341
68 204.00 1500.03 1205 3898 0.740 10000.000 0.000 0.610 15000.000 0.000 -0.341
69 207.00 1500.03 1145 3678 0.740 10000.000 0.000 0.610 15000.000 0.000 -0.341
70 210.00 1500.03 1168 3867 0.740 10000.000 0.000 0.610 15000.000 0.000 -0.341
71 213.00 1500.03 1180 3784 0.740 10000.000 0.000 0.610 15000.000 0.000 -0.341
72 216.00 1500.03 1199 3910 0.740 10000.000 0.000 0.610 15000.000 0.000 -0.341
73 219.00 1500.03 1225 3829 0.740 10000.000 0.000 0.610 15000.000 0.000 -0.341
74 222.00 1500.03 1206 3813 0.740 10000.000 0.000 0.610 15000.000 0.000 -0.341
75 225.00 1500.03 1187 3986 0.740 10000.000 0.000 0.610 15000.000 0.000 -0.341
76 228.00 1500.03 1232 3983 0.740 10000.000 0.000 0.610 15000.000 0.000 -0.341
77 231.00 1500.03 1232 3893 0.740 10000.000 0.000 0.610 15000.000 0.000 -0.341
78 234.00 1500.03 1219 3885 0.740 10000.000 0.000 0.610 15000.000 0.000 -0.341
79 237.00 1500.03 1176 3840 0.740 10000.000 0.000 0.610 15000.000 0.000 -0.341
80 240.00 1500.03 1257 3754 0.740 10000.000 0.000 0.610 15000.000 0.000 -0.341
81 243.00 1500.03 1198 3549 0.740 10000.000 0.000 0.610 15000.000 0.000 -0.341
82 246.00 1500.03 1248 3649 0.740 10000.000 0.000 0.610 15000.000 0.000 -0.341
83 249.00 1500.03 1167 3571 0.740 10000.000 0.000 0.610 15000.000 0.000 -0.341
84 252.00 1500.03 1168 3486 0.740 10000.000 0.000 0.610 15000.000 0.000 -0.341
85 255.00 1500.03 1156 3749 0.740 10000.000 0.000 0.610 15000.000 0.000 -0.341
86 258.00 1500.03 1172 3776 0.740 10000.000 0.000 0.610 15000.000 0.000 -0.341
87 261.00 1500.03 1245 3784 0.740 10000.000 0.000 0.610 15000.000 0.000 -0.341
88 264.00 1500.03 1279 3919 0.740 10000.000 0.000 0.610 15000.000 0.000 -0.341
89 267.00 1500.03 1199 3940 0.740 10000.000 0.000 0.610 15000.000 0.000 -0.341
90 270.00 1500.03 1206 4097 0.740 10000.000 0.000 0.610 15000.000 0.000 -0.341
91 273.00 1500.03 1161 3811 0.740 10000.000 0.000 0.610 15000.000 0.000 -0.341
92 276.00 1500.03 1192 3939 0.740 10000.000 0.000 0.610 15000.000 0.000 -0.341
93 279.00 1500.03 1109 3802 0.740 10000.000 0.000 0.610 15000.000 0.000 -0.341
94 282.00 1500.03 1218 3777 0.740 10000.000 0.000 0.610 15000.000 0.000 -0.341
95 285.00 1500.03 1153 3765 0.740 10000.000 0.000 0.610 15000.000 0.000 -0.341
96 288.00 1500.03 1249 3969 0.740 10000.000 0.000 0.610 15000.000 0.000 -0.341
97 291.00 1500.03 1229 3696 0.740 10000.000 0.000 0.610 15000.000 0.000 -0.341
98 294.00 1500.03 1143 3920 0.740 10000.000 0.000 0.610 15000.000 0.000 -0.341
99 297.00 1500.03 1156 3879 0.740 10000.000 0.000 0.610 15000.000 0.000 -0.341
100 300.00 1500.03 1174 4048 0.740 10000.000 0.000 0.610 15000.000 0.000 -0.341
101 303.00 1500.03 1234 3885 0.740 10000.000 0.000 0.610 15000.000 0.000 -0.341
102 306.00 1500.03 1245 3960 0.740 10000.000 0.000 0.610 15000.000 0.000 -0.341
103 309.00 1500.03 1246 3967 0.740 10000.000 0.000 0.610 15000.000 0.000 -0.341
104 312.00 1500.03 1169 4027 0.740 10000.000 0.000 0.610 15000.000 0.000 -0.341
105 315.00 1500.03 1157 3874 0.740 10000.000 0.000 0.610 15000.000 0.000 -0.341
106 318.00 1500.03 1213 3995 0.740 10000.000 0.000 0.610 15000.000 0.000 -0.341
107 321.00 1500.03 1242 3890 0.740 10000.000 0.000 0.610 15000.000 0.000 -0.341
108 324.00 1500.03 1263 3927 0.740 10000.000 0.000 0.610 15000.000 0.000 -0.341
109 327.00 1500.03 1215 3921 0.740 10000.000 0.000 0.610 15000.000 0.000 -0.341
110 330.00 1500.03 1172 3896 0.740 10000.000 0.000 0.610 15000.000 0.000 -0.341
111 333.00 1500.03 1242 3904 0.740 10000.000 0.000 0.610 15000.000 0.000 -0.341
112 336.00 1500.03 1260 4008 0.740 10000.000 0.000 0.610 15000.000 0.000 -0.341
113 339.00 1500.03 1181 3911 0.740 10000.000 0.000 0.610 15000.000 0.000 -0.341
114 342.00 1500.03 1191 3958 0.740 10000.000 0.000 0.610 15000.000 0.000 -0.341
115 345.00 1500.03 1191 3933 0.740 10000.000 0.000 0.610 15000.000 0.000 -0.341
116 348.00 1500.03 1209 4097 0.740 10000.000 0.000 0.610 15000.000 0.000 -0.341
117 351.00 1500.03 1199 4009 0.740 10000.000 0.000 0.610 15000.000 0.000 -0.341
118 354.00 1500.03 1258 3968 0.740 10000.000 0.000 0.610 15000.000 0.000 -0.341
119 357.00 1500.03 1165 3927 0.740 10000.000 0.000 0.610 15000.000 0.000 -0.341
120 360.00 1500.03 1277 3942 0.740 10000.000 0.000 0.610 15000.000 0.000 -0.341
121 363.00 1500.03 1218 3840 0.740 10000.000 0.000 0.610 15000.000 0.000 -0.341
122 366.00 1500.03 1262 3973 0.740 10000.000 0.000 0.610 15000.000 0.000 -0.341
123 369.00 1500.03 1130 3876 0.740 10000.000 0.000 0.610 15000.000 0.000 -0.341
124 372.00 1500.03 1171 3863 0.740 10000.000 0.000 0.610 15000.000 0.000 -0.341
125 375.00 1500.03 1234 3918 0.740 10000.000 0.000 0.610 15000.000 0.000 -0.341
126 378.00 1500.03 1164 4003 0.740 10000.000 0.000 0.610 15000.000 0.000 -0.341
127 381.00 1500.03 1211 3998 0.740 10000.000 0.000 0.610 15000.000 0.000 -0.341
128 384.00 1500.03 1249 3878 0.740 10000.000 0.000 0.610 15000.000 0.000 -0.341
129 387.00 1500.03 1166 3888 0.740 10000.000 0.000 0.610 15000.000 0.000 -0.341
130 390.00 1500.03 1226 3900 0.740 10000.000 0.000 0.610 15000.000 0.000 -0.341
131 393.00 1500.03 1210 3957 0.740 10000.000 0.000 0.610 15000.000 0.000 -0.341
132 396.00 1500.03 1271 3962 0.740 10000.000 0.000 0.610 15000.000 0.000 -0.341
133 399.00 1500.03 1171 3944 0.740 10000.000 0.000 0.610 15000.000 0.000 -0.341
134 402.00 1500.03 1199 3866 0.740 10000.000 0.000 0.610 15000.000 0.000 -0.341
135 405.00 1500.03 1211 3865 0.740 10000.000 0.000 0.610 15000.000 0.000 -0.341
136 408.00 1500.03 1247 3918 0.740 10000.000 0.000 0.610 15000.000 0.000 -0.341
137 411.00 1500.03 1183 3648 0.740 10000.000 0.000 0.610 15000.000 0.000 -0.341
138 414.00 1500.03 1265 3903 0.740 10000.000 0.000 0.610 15000.000 0.000 -0.341
139 417.00 1500.03 1198 3865 0.740 10000.000 0.000 0.610 15000.000 0.000 -0.341
140 420.00 1500.03 1240 4028 0.740 10000.000 0.000 0.610 15000.000 0.000 -0.341
141 423.00 1500.03 1213 3874 0.740 10000.000 0.000 0.610 15000.000 0.000 -0.341
142 426.00 1500.03 1188 4015 0.740 10000.000 0.000 0.610 15000.000 0.000 -0.341
143 429.00 1500.03 1230 3883 0.740 10000.000 0.000 0.610 15000.000 0.000 -0.341
144 432.00 1500.03 1222 3971 0.740 10000.000 0.000 0.610 15000.000 0.000 -0.341
