# BinNR microsec tot-time (s)  O-Beam AUX Ampl_1(V) f_1(Hz) phase_1(deg) Ampl_2(V) f_2(Hz) phase_2(deg) chi(pos)
0 0.00 1500.02 539 1807 0.740 10000.000 0.000 0.610 15000.000 0.000 -0.505
1 3.00 1500.02 1059 3464 0.740 10000.000 0.000 0.610 15000.000 0.000 -0.505
2 6.00 1500.02 1080 3520 0.740 10000.000 0.000 0.610 15000.000 0.000 -0.505
3 9.00 1500.02 1046 3501 0.740 10000.000 0.000 0.610 15000.000 0.000 -0.505
4 12.00 1500.02 1114 3526 0.740 10000.000 0.000 0.610 15000.000 0.000 -0.505
5 15.00 1500.02 1054 3492 0.740 10000.000 0.000 0.610 15000.000 0.000 -0.505
6 18.00 1500.02 1073 3660 0.740 10000.000 0.000 0.610 15000.000 0.000 -0.505
7 21.00 1500.02 1102 3633 0.740 10000.000 0.000 0.610 15000.000 0.000 -0.505
8 24.00 1500.02 1107 3678 0.740 10000.000 0.000 0.610 15000.000 0.000 -0.505
9 27.00 1500.02 1102 3689 0.740 10000.000 0.000 0.610 15000.000 0.000 -0.505
10 30.00 1500.02 1070 3888 0.740 10000.000 0.000 0.610 15000.000 0.000 -0.505
11 33.00 1500.02 1082 3590 0.740 10000.000 0.000 0.610 15000.000 0.000 -0.505
12 36.00 1500.02 1045 3707 0.740 10000.000 0.000 0.610 15000.000 0.000 -0.505
13 39.00 1500.02 1058 3656 0.740 10000.000 0.000 0.610 15000.000 0.000 -0.505
14 42.00 1500.02 1115 3614 0.740 10000.000 0.000 0.610 15000.000 0.000 -0.505
15 45.00 1500.02 1034 3737 0.740 10000.000 0.000 0.610 15000.000 0.000 -0.505
16 48.00 1500.02 1035 3604 0.740 10000.000 0.000 0.610 15000.000 0.000 -0.505
17 51.00 1500.02 1094 3496 0.740 10000.000 0.000 0.610 15000.000 0.000 -0.505
18 54.00 1500.02 1133 3644 0.740 10000.000 0.000 0.610 15000.000 0.000 -0.505
19 57.00 1500.02 1083 3573 0.740 10000.000 0.000 0.610 15000.000 0.000 -0.505
20 60.00 1500.02 1045 3582 0.740 10000.000 0.000 0.610 15000.000 0.000 -0.505
21 63.00 1500.02 1030 3568 0.740 10000.000 0.000 0.610 15000.000 0.000 -0.505
22 66.00 1500.02 1061 3567 0.740 10000.000 0.000 0.610 15000.000 0.000 -0.505
23 69.00 1500.02 1073 3597 0.740 10000.000 0.000 0.610 15000.000 0.000 -0.505
24 72.00 1500.02 1092 3681 0.740 10000.000 0.000 0.610 15000.000 0.000 -0.505
25 75.00 1500.02 1048 3726 0.740 10000.000 0.000 0.610 15000.000 0.000 -0.505
26 78.00 1500.02 1021 3668 0.740 10000.000 0.000 0.610 15000.000 0.000 -0.505
27 81.00 1500.02 1043 3590 0.740 10000.000 0.000 0.610 15000.000 0.000 -0.505
28 84.00 1500.02 1037 3521 0.740 10000.000 0.000 0.610 15000.000 0.000 -0.505
29 87.00 1500.02 1074 3555 0.740 10000.000 0.000 0.610 15000.000 0.000 -0.505
30 90.00 1500.02 1037 3724 0.740 10000.000 0.000 0.610 15000.000 0.000 -0.505
31 93.00 1500.02 1072 3521 0.740 10000.000 0.000 0.610 15000.000 0.000 -0.505
32 96.00 1500.02 1091 3667 0.740 10000.000 0.000 0.610 15000.000 0.000 -0.505
33 99.00 1500.02 1080 3536 0.740 10000.000 0.000 0.610 15000.000 0.000 -0.505
34 102.00 1500.02 1002 3693 0.740 10000.000 0.000 0.610 15000.000 0.000 -0.505
35 105.00 1500.02 1106 3629 0.740 10000.000 0.000 0.610 15000.000 0.000 -0.505
36 108.00 1500.02 1118 3788 0.740 10000.000 0.000 0.610 15000.000 0.000 -0.505
37 111.00 1500.02 1065 3666 0.740 10000.000 0.000 0.610 15000.000 0.000 -0.505
38 114.00 1500.02 1046 3712 0.740 10000.000 0.000 0.610 15000.000 0.000 -0.505
39 117.00 1500.02 1044 3487 0.740 10000.000 0.000 0.610 15000.000 0.000 -0.505
40 120.00 1500.02 1099 3782 0.740 10000.000 0.000 0.610 15000.000 0.000 -0.505
41 123.00 1500.02 1048 3610 0.740 10000.000 0.000 0.610 15000.000 0.000 -0.505
42 126.00 1500.02 1063 3683 0.740 10000.000 0.000 0.610 15000.000 0.000 -0.505
43 129.00 1500.02 1018 3625 0.740 10000.000 0.000 0.610 15000.000 0.000 -0.505
44 132.00 1500.02 1067 3614 0.740 10000.000 0.000 0.610 15000.000 0.000 -0.505
45 135.00 1500.02 1034 3468 0.740 10000.000 0.000 0.610 15000.000 0.000 -0.505
46 138.00 1500.02 1133 3661 0.740 10000.000 0.000 0.610 15000.000 0.000 -0.505
47 141.00 1500.02 1067 3665 0.740 10000.000 0.000 0.610 15000.000 0.000 -0.505
48 144.00 1500.02 1084 3663 0.740 10000.000 0.000 0.610 15000.000 0.000 -0.505
49 147.00 1500.02 1059 3593 0.740 10000.000 0.000 0.610 15000.000 0.000 -0.505
50 150.00 1500.02 1128 3821 0.740 10000.000 0.000 0.610 15000.000 0.000 -0.505
51 153.00 1500.02 1060 3559 0.740 10000.000 0.000 0.610 15000.000 0.000 -0.505
52 156.00 1500.02 1094 3681 0.740 10000.000 0.000 0.610 15000.000 0.000 -0.505
53 159.00 1500.02 1103 3707 0.740 10000.000 0.000 0.610 15000.000 0.000 -0.505
54 162.00 1500.02 1120 3667 0.740 10000.000 0.000 0.610 15000.000 0.000 -0.505
55 165.00 1500.02 1107 3718 0.740 10000.000 0.000 0.610 15000.000 0.000 -0.505
56 168.00 1500.02 1049 3658 0.740 10000.000 0.000 0.610 15000.000 0.000 -0.505
57 171.00 1500.02 1080 3630 0.740 10000.000 0.000 0.610 15000.000 0.000 -0.505
58 174.00 1500.02 1018 3739 0.740 10000.000 0.000 0.610 15000.000 0.000 -0.505
59 177.00 1500.02 1104 3650 0.740 10000.000 0.000 0.610 15000.000 0.000 -0.505
60 180.00 1500.02 1108 3683 0.740 10000.000 0.000 0.610 15000.000 0.000 -0.505
61 183.00 1500.02 1097 3527 0.740 10000.000 0.000 0.610 15000.000 0.000 -0.505
62 186.00 1500.02 1087 3662 0.740 10000.000 0.000 0.610 15000.000 0.000 -0.505
63 189.00 1500.02 1079 3713 0.740 10000.000 0.000 0.610 15000.000 0.000 -0.505
64 192.00 1500.02 1121 3741 0.740 10000.000 0.000 0.610 15000.000 0.000 -0.505
65 195.00 1500.02 1112 3712 0.740 10000.000 0.000 0.610 15000.000 0.000 -0.505
66 198.00 1500.02 1103 3619 0.740 10000.000 0.000 0.610 15000.000 0.000 -0.505
67 201.00 1500.02 1028 3508 0.740 10000.000 0.000 0.610 15000.000 0.000 -0.505
68 204.00 1500.02 1043 3701 0.740 10000.000 0.000 0.610 15000.000 0.000 -0.505
69 207.00 1500.02 1144 3527 0.740 10000.000 0.000 0.610 15000.000 0.000 -0.505
70 210.00 1500.02 1099 3585 0.740 10000.000 0.000 0.610 15000.000 0.000 -0.505
71 213.00 1500.02 1066 3598 0.740 10000.000 0.000 0.610 15000.000 0.000 -0.505
72 216.00 1500.02 1080 3622 0.740 10000.000 0.000 0.610 15000.000 0.000 -0.505
73 219.00 1500.02 1069 3581 0.740 10000.000 0.000 0.610 15000.000 0.000 -0.505
74 222.00 1500.02 1077 3713 0.740 10000.000 0.000 0.610 15000.000 0.000 -0.505
75 225.00 1500.02 1030 3685 0.740 10000.000 0.000 0.610 15000.000 0.000 -0.505
76 228.00 1500.02 1122 3869 0.740 10000.000 0.000 0.610 15000.000 0.000 -0.505
77 231.00 1500.02 1092 3671 0.740 10000.000 0.000 0.610 15000.000 0.000 -0.505
78 234.00 1500.02 1060 3734 0.740 10000.000 0.000 0.610 15000.000 0.000 -0.505
79 237.00 1500.02 1035 3516 0.740 10000.000 0.000 0.610 15000.000 0.000 -0.505
80 240.00 1500.02 1114 3456 0.740 10000.000 0.000 0.610 15000.000 0.000 -0.505
81 243.00 1500.02 1095 3355 0.740 10000.000 0.000 0.610 15000.000 0.000 -0.505
82 246.00 1500.02 1036 3438 0.740 10000.000 0.000 0.610 15000.000 0.000 -0.505
83 249.00 1500.02 1037 3299 0.740 10000.000 0.000 0.610 15000.000 0.000 -0.505
84 252.00 1500.02 1071 3421 0.740 10000.000 0.000 0.610 15000.000 0.000 -0.505
85 255.00 1500.02 1085 3411 0.740 10000.000 0.000 0.610 15000.000 0.000 -0.505
86 258.00 1500.02 1084 3534 0.740 10000.000 0.000 0.610 15000.000 0.000 -0.505
87 261.00 1500.02 1092 3506 0.740 10000.000 0.000 0.610 15000.000 0.000 -0.505
88 264.00 1500.02 1051 3643 0.740 10000.000 0.000 0.610 15000.000 0.000 -0.505
89 267.00 1500.02 1069 3649 0.740 10000.000 0.000 0.610 15000.000 0.000 -0.505
90 270.00 1500.02 1068 3639 0.740 10000.000 0.000 0.610 15000.000 0.000 -0.505
91 273.00 1500.02 1027 3565 0.740 10000.000 0.000 0.610 15000.000 0.000 -0.505
92 276.00 1500.02 1083 3624 0.740 10000.000 0.000 0.610 15000.000 0.000 -0.505
93 279.00 1500.02 1023 3599 0.740 10000.000 0.000 0.610 15000.000 0.000 -0.505
94 282.00 1500.02 1075 3691 0.740 10000.000 0.000 0.610 15000.000 0.000 -0.505
95 285.00 1500.02 1093 3436 0.740 10000.000 0.000 0.610 15000.000 0.000 -0.505
96 288.00 1500.02 1148 3514 0.740 10000.000 0.000 0.610 15000.000 0.000 -0.505
97 291.00 1500.02 1066 3456 0.740 10000.000 0.000 0.610 15000.000 0.000 -0.505
98 294.00 1500.02 1077 3616 0.740 10000.000 0.000 0.610 15000.000 0.000 -0.505
99 297.00 1500.02 1061 3614 0.740 10000.000 0.000 0.610 15000.000 0.000 -0.505
100 300.00 1500.02 1042 3685 0.740 10000.000 0.000 0.610 15000.000 0.000 -0.505
101 303.00 1500.02 1067 3561 0.740 10000.000 0.000 0.610 15000.000 0.000 -0.505
102 306.00 1500.02 1078 3688 0.740 10000.000 0.000 0.610 15000.000 0.000 -0.505
103 309.00 1500.02 1094 3655 0.740 10000.000 0.000 0.610 15000.000 0.000 -0.505
104 312.00 1500.02 1118 3703 0.740 10000.000 0.000 0.610 15000.000 0.000 -0.505
105 315.00 1500.02 1114 3547 0.740 10000.000 0.000 0.610 15000.000 0.000 -0.505
106 318.00 1500.02 1114 3688 0.740 10000.000 0.000 0.610 15000.000 0.000 -0.505
107 321.00 1500.02 1083 3669 0.740 10000.000 0.000 0.610 15000.000 0.000 -0.505
108 324.00 1500.02 1153 3683 0.740 10000.000 0.000 0.610 15000.000 0.000 -0.505
109 327.00 1500.02 1033 3680 0.740 10000.000 0.000 0.610 15000.000 0.000 -0.505
110 330.00 1500.02 1105 3697 0.740 10000.000 0.000 0.610 15000.000 0.000 -0.505
111 333.00 1500.02 1095 3667 0.740 10000.000 0.000 0.610 15000.000 0.000 -0.505
112 336.00 1500.02 965 3693 0.740 10000.000 0.000 0.610 15000.000 0.000 -0.505
113 339.00 1500.02 1098 3744 0.740 10000.000 0.000 0.610 15000.000 0.000 -0.505
114 342.00 1500.02 1027 3663 0.740 10000.000 0.000 0.610 15000.000 0.000 -0.505
115 345.00 1500.02 1089 3704 0.740 10000.000 0.000 0.610 15000.000 0.000 -0.505
116 348.00 1500.02 1154 3719 0.740 10000.000 0.000 0.610 15000.000 0.000 -0.505
117 351.00 1500.02 1058 3635 0.740 10000.000 0.000 0.610 15000.000 0.000 -0.505
118 354.00 1500.02 1081 3635 0.740 10000.000 0.000 0.610 15000.000 0.000 -0.505
119 357.00 1500.02 1102 3680 0.740 10000.000 0.000 0.610 15000.000 0.000 -0.505
120 360.00 1500.02 1111 3799 0.740 10000.000 0.000 0.610 15000.000 0.000 -0.505
121 363.00 1500.02 1051 3589 0.740 10000.000 0.000 0.610 15000.000 0.000 -0.505
122 366.00 1500.02 1099 3752 0.740 10000.000 0.000 0.610 15000.000 0.000 -0.505
123 369.00 1500.02 1084 3615 0.740 10000.000 0.000 0.610 15000.000 0.000 -0.505
124 372.00 1500.02 1089 3719 0.740 10000.000 0.000 0.610 15000.000 0.000 -0.505
125 375.00 1500.02 1078 3552 0.740 10000.000 0.000 0.610 15000.000 0.000 -0.505
126 378.00 1500.02 1061 3623 0.740 10000.000 0.000 0.610 15000.000 0.000 -0.505
127 381.00 1500.02 1084 3701 0.740 10000.000 0.000 0.610 15000.000 0.000 -0.505
128 384.00 1500.02 1100 3678 0.740 10000.000 0.000 0.610 15000.000 0.000 -0.505
129 387.00 1500.02 1031 3774 0.740 10000.000 0.000 0.610 15000.000 0.000 -0.505
130 390.00 1500.02 1103 3656 0.740 10000.000 0.000 0.610 15000.000 0.000 -0.505
131 393.00 1500.02 1054 3645 0.740 10000.000 0.000 0.610 15000.000 0.000 -0.505
132 396.00 1500.02 1052 3697 0.740 10000.000 0.000 0.610 15000.000 0.000 -0.505
133 399.00 1500.02 1016 3620 0.740 10000.000 0.000 0.610 15000.000 0.000 -0.505
134 402.00 1500.02 1081 3610 0.740 10000.000 0.000 0.610 15000.000 0.000 -0.505
135 405.00 1500.02 1048 3375 0.740 10000.000 0.000 0.610 15000.000 0.000 -0.505
136 408.00 1500.02 1076 3566 0.740 10000.000 0.000 0.610 15000.000 0.000 -0.505
137 411.00 1500.02 1058 3598 0.740 10000.000 0.000 0.610 15000.000 0.000 -0.505
138 414.00 1500.02 1061 3603 0.740 10000.000 0.000 0.610 15000.000 0.000 -0.505
139 417.00 1500.02 1098 3512 0.740 10000.000 0.000 0.610 15000.000 0.000 -0.505
140 420.00 1500.02 1146 3643 0.740 10000.000 0.000 0.610 15000.000 0.000 -0.505
141 423.00 1500.02 1089 3655 0.740 10000.000 0.000 0.610 15000.000 0.000 -0.505
142 426.00 1500.02 1031 3826 0.740 10000.000 0.000 0.610 15000.000 0.000 -0.505
143 429.00 1500.02 1089 3758 0.740 10000.000 0.000 0.610 15000.000 0.000 -0.505
144 432.00 1500.02 1146 3705 0.740 10000.000 0.000 0.610 15000.000 0.000 -0.505
