# BinNR microsec tot-time (s)  O-Beam AUX Ampl(V) f(Hz) phase(deg) chi(pos)
0 0.00 1200.00 74 324 3.940 10000.000 0.000 -0.077
1 3.00 1200.00 144 679 3.940 10000.000 0.000 -0.077
2 6.00 1200.00 157 705 3.940 10000.000 0.000 -0.077
3 9.00 1200.00 169 776 3.940 10000.000 0.000 -0.077
4 12.00 1200.00 165 682 3.940 10000.000 0.000 -0.077
5 15.00 1200.00 182 556 3.940 10000.000 0.000 -0.077
6 18.00 1200.00 227 548 3.940 10000.000 0.000 -0.077
7 21.00 1200.00 230 484 3.940 10000.000 0.000 -0.077
8 24.00 1200.00 236 393 3.940 10000.000 0.000 -0.077
9 27.00 1200.00 222 430 3.940 10000.000 0.000 -0.077
10 30.00 1200.00 226 404 3.940 10000.000 0.000 -0.077
11 33.00 1200.00 232 486 3.940 10000.000 0.000 -0.077
12 36.00 1200.00 229 588 3.940 10000.000 0.000 -0.077
13 39.00 1200.00 205 615 3.940 10000.000 0.000 -0.077
14 42.00 1200.00 203 684 3.940 10000.000 0.000 -0.077
15 45.00 1200.00 180 674 3.940 10000.000 0.000 -0.077
16 48.00 1200.00 169 726 3.940 10000.000 0.000 -0.077
17 51.00 1200.00 150 625 3.940 10000.000 0.000 -0.077
18 54.00 1200.00 172 577 3.940 10000.000 0.000 -0.077
19 57.00 1200.00 183 486 3.940 10000.000 0.000 -0.077
20 60.00 1200.00 173 429 3.940 10000.000 0.000 -0.077
21 63.00 1200.00 213 404 3.940 10000.000 0.000 -0.077
22 66.00 1200.00 241 413 3.940 10000.000 0.000 -0.077
23 69.00 1200.00 205 408 3.940 10000.000 0.000 -0.077
24 72.00 1200.00 228 434 3.940 10000.000 0.000 -0.077
25 75.00 1200.00 233 475 3.940 10000.000 0.000 -0.077
26 78.00 1200.00 214 617 3.940 10000.000 0.000 -0.077
27 81.00 1200.00 216 615 3.940 10000.000 0.000 -0.077
28 84.00 1200.00 209 697 3.940 10000.000 0.000 -0.077
29 87.00 1200.00 195 690 3.940 10000.000 0.000 -0.077
30 90.00 1200.00 206 691 3.940 10000.000 0.000 -0.077
31 93.00 1200.00 173 675 3.940 10000.000 0.000 -0.077
32 96.00 1200.00 147 578 3.940 10000.000 0.000 -0.077
33 99.00 1200.00 166 435 3.940 10000.000 0.000 -0.077
34 102.00 1200.00 121 382 3.940 10000.000 0.000 -0.077
35 105.00 1200.00 167 354 3.940 10000.000 0.000 -0.077
36 108.00 1200.00 170 270 3.940 10000.000 0.000 -0.077
37 111.00 1200.00 165 250 3.940 10000.000 0.000 -0.077
38 114.00 1200.00 189 213 3.940 10000.000 0.000 -0.077
39 117.00 1200.00 196 231 3.940 10000.000 0.000 -0.077
40 120.00 1200.00 234 261 3.940 10000.000 0.000 -0.077
41 123.00 1200.00 241 252 3.940 10000.000 0.000 -0.077
42 126.00 1200.00 230 342 3.940 10000.000 0.000 -0.077
43 129.00 1200.00 236 378 3.940 10000.000 0.000 -0.077
44 132.00 1200.00 209 532 3.940 10000.000 0.000 -0.077
45 135.00 1200.00 229 574 3.940 10000.000 0.000 -0.077
46 138.00 1200.00 202 687 3.940 10000.000 0.000 -0.077
47 141.00 1200.00 179 719 3.940 10000.000 0.000 -0.077
48 144.00 1200.00 156 727 3.940 10000.000 0.000 -0.077
49 147.00 1200.00 186 574 3.940 10000.000 0.000 -0.077
50 150.00 1200.00 161 633 3.940 10000.000 0.000 -0.077
51 153.00 1200.00 169 545 3.940 10000.000 0.000 -0.077
52 156.00 1200.00 178 498 3.940 10000.000 0.000 -0.077
53 159.00 1200.00 177 402 3.940 10000.000 0.000 -0.077
54 162.00 1200.00 169 419 3.940 10000.000 0.000 -0.077
55 165.00 1200.00 200 386 3.940 10000.000 0.000 -0.077
56 168.00 1200.00 216 425 3.940 10000.000 0.000 -0.077
57 171.00 1200.00 221 434 3.940 10000.000 0.000 -0.077
58 174.00 1200.00 243 477 3.940 10000.000 0.000 -0.077
59 177.00 1200.00 204 553 3.940 10000.000 0.000 -0.077
60 180.00 1200.00 236 600 3.940 10000.000 0.000 -0.077
61 183.00 1200.00 223 655 3.940 10000.000 0.000 -0.077
62 186.00 1200.00 215 740 3.940 10000.000 0.000 -0.077
63 189.00 1200.00 164 669 3.940 10000.000 0.000 -0.077
64 192.00 1200.00 166 754 3.940 10000.000 0.000 -0.077
65 195.00 1200.00 158 589 3.940 10000.000 0.000 -0.077
66 198.00 1200.00 164 496 3.940 10000.000 0.000 -0.077
67 201.00 1200.00 144 415 3.940 10000.000 0.000 -0.077
68 204.00 1200.00 148 329 3.940 10000.000 0.000 -0.077
69 207.00 1200.00 157 254 3.940 10000.000 0.000 -0.077
70 210.00 1200.00 190 237 3.940 10000.000 0.000 -0.077
71 213.00 1200.00 173 204 3.940 10000.000 0.000 -0.077
72 216.00 1200.00 194 208 3.940 10000.000 0.000 -0.077
73 219.00 1200.00 187 217 3.940 10000.000 0.000 -0.077
74 222.00 1200.00 215 271 3.940 10000.000 0.000 -0.077
75 225.00 1200.00 223 307 3.940 10000.000 0.000 -0.077
76 228.00 1200.00 231 392 3.940 10000.000 0.000 -0.077
77 231.00 1200.00 230 479 3.940 10000.000 0.000 -0.077
78 234.00 1200.00 231 572 3.940 10000.000 0.000 -0.077
79 237.00 1200.00 215 607 3.940 10000.000 0.000 -0.077
80 240.00 1200.00 243 721 3.940 10000.000 0.000 -0.077
81 243.00 1200.00 208 695 3.940 10000.000 0.000 -0.077
82 246.00 1200.00 215 677 3.940 10000.000 0.000 -0.077
83 249.00 1200.00 213 640 3.940 10000.000 0.000 -0.077
84 252.00 1200.00 221 551 3.940 10000.000 0.000 -0.077
85 255.00 1200.00 230 511 3.940 10000.000 0.000 -0.077
86 258.00 1200.00 225 491 3.940 10000.000 0.000 -0.077
87 261.00 1200.00 227 416 3.940 10000.000 0.000 -0.077
88 264.00 1200.00 256 389 3.940 10000.000 0.000 -0.077
89 267.00 1200.00 243 425 3.940 10000.000 0.000 -0.077
90 270.00 1200.00 257 417 3.940 10000.000 0.000 -0.077
91 273.00 1200.00 270 442 3.940 10000.000 0.000 -0.077
92 276.00 1200.00 240 547 3.940 10000.000 0.000 -0.077
93 279.00 1200.00 249 565 3.940 10000.000 0.000 -0.077
94 282.00 1200.00 244 671 3.940 10000.000 0.000 -0.077
95 285.00 1200.00 258 662 3.940 10000.000 0.000 -0.077
96 288.00 1200.00 239 704 3.940 10000.000 0.000 -0.077
97 291.00 1200.00 249 680 3.940 10000.000 0.000 -0.077
98 294.00 1200.00 223 642 3.940 10000.000 0.000 -0.077
99 297.00 1200.00 236 480 3.940 10000.000 0.000 -0.077
100 300.00 1200.00 220 411 3.940 10000.000 0.000 -0.077
101 303.00 1200.00 235 338 3.940 10000.000 0.000 -0.077
102 306.00 1200.00 259 302 3.940 10000.000 0.000 -0.077
103 309.00 1200.00 245 243 3.940 10000.000 0.000 -0.077
104 312.00 1200.00 244 220 3.940 10000.000 0.000 -0.077
105 315.00 1200.00 243 231 3.940 10000.000 0.000 -0.077
106 318.00 1200.00 202 230 3.940 10000.000 0.000 -0.077
107 321.00 1200.00 220 253 3.940 10000.000 0.000 -0.077
108 324.00 1200.00 203 317 3.940 10000.000 0.000 -0.077
109 327.00 1200.00 198 360 3.940 10000.000 0.000 -0.077
110 330.00 1200.00 177 430 3.940 10000.000 0.000 -0.077
111 333.00 1200.00 131 499 3.940 10000.000 0.000 -0.077
112 336.00 1200.00 150 596 3.940 10000.000 0.000 -0.077
113 339.00 1200.00 160 646 3.940 10000.000 0.000 -0.077
114 342.00 1200.00 181 693 3.940 10000.000 0.000 -0.077
115 345.00 1200.00 150 667 3.940 10000.000 0.000 -0.077
116 348.00 1200.00 197 653 3.940 10000.000 0.000 -0.077
117 351.00 1200.00 227 656 3.940 10000.000 0.000 -0.077
118 354.00 1200.00 231 504 3.940 10000.000 0.000 -0.077
119 357.00 1200.00 237 466 3.940 10000.000 0.000 -0.077
120 360.00 1200.00 221 410 3.940 10000.000 0.000 -0.077
121 363.00 1200.00 238 409 3.940 10000.000 0.000 -0.077
122 366.00 1200.00 258 367 3.940 10000.000 0.000 -0.077
123 369.00 1200.00 232 415 3.940 10000.000 0.000 -0.077
124 372.00 1200.00 228 485 3.940 10000.000 0.000 -0.077
125 375.00 1200.00 185 486 3.940 10000.000 0.000 -0.077
126 378.00 1200.00 198 612 3.940 10000.000 0.000 -0.077
127 381.00 1200.00 171 654 3.940 10000.000 0.000 -0.077
128 384.00 1200.00 168 638 3.940 10000.000 0.000 -0.077
129 387.00 1200.00 170 764 3.940 10000.000 0.000 -0.077
130 390.00 1200.00 170 668 3.940 10000.000 0.000 -0.077
131 393.00 1200.00 179 635 3.940 10000.000 0.000 -0.077
132 396.00 1200.00 189 590 3.940 10000.000 0.000 -0.077
133 399.00 1200.00 229 488 3.940 10000.000 0.000 -0.077
134 402.00 1200.00 256 380 3.940 10000.000 0.000 -0.077
135 405.00 1200.00 225 344 3.940 10000.000 0.000 -0.077
136 408.00 1200.00 262 336 3.940 10000.000 0.000 -0.077
137 411.00 1200.00 205 364 3.940 10000.000 0.000 -0.077
138 414.00 1200.00 218 372 3.940 10000.000 0.000 -0.077
139 417.00 1200.00 201 460 3.940 10000.000 0.000 -0.077
140 420.00 1200.00 211 559 3.940 10000.000 0.000 -0.077
141 423.00 1200.00 202 657 3.940 10000.000 0.000 -0.077
