# BinNR microsec tot-time (s)  O-Beam AUX Ampl(V) f(Hz) phase(deg) chi(pos)
0 0.00 1200.00 140 335 0.490 10000.000 0.000 -0.472
1 3.00 1200.00 285 678 0.490 10000.000 0.000 -0.472
2 6.00 1200.00 262 694 0.490 10000.000 0.000 -0.472
3 9.00 1200.00 227 682 0.490 10000.000 0.000 -0.472
4 12.00 1200.00 265 676 0.490 10000.000 0.000 -0.472
5 15.00 1200.00 278 666 0.490 10000.000 0.000 -0.472
6 18.00 1200.00 266 635 0.490 10000.000 0.000 -0.472
7 21.00 1200.00 218 617 0.490 10000.000 0.000 -0.472
8 24.00 1200.00 246 685 0.490 10000.000 0.000 -0.472
9 27.00 1200.00 297 625 0.490 10000.000 0.000 -0.472
10 30.00 1200.00 266 638 0.490 10000.000 0.000 -0.472
11 33.00 1200.00 300 593 0.490 10000.000 0.000 -0.472
12 36.00 1200.00 277 683 0.490 10000.000 0.000 -0.472
13 39.00 1200.00 256 660 0.490 10000.000 0.000 -0.472
14 42.00 1200.00 275 710 0.490 10000.000 0.000 -0.472
15 45.00 1200.00 268 709 0.490 10000.000 0.000 -0.472
16 48.00 1200.00 262 660 0.490 10000.000 0.000 -0.472
17 51.00 1200.00 260 660 0.490 10000.000 0.000 -0.472
18 54.00 1200.00 312 691 0.490 10000.000 0.000 -0.472
19 57.00 1200.00 268 696 0.490 10000.000 0.000 -0.472
20 60.00 1200.00 277 712 0.490 10000.000 0.000 -0.472
21 63.00 1200.00 279 695 0.490 10000.000 0.000 -0.472
22 66.00 1200.00 298 721 0.490 10000.000 0.000 -0.472
23 69.00 1200.00 270 655 0.490 10000.000 0.000 -0.472
24 72.00 1200.00 262 678 0.490 10000.000 0.000 -0.472
25 75.00 1200.00 243 704 0.490 10000.000 0.000 -0.472
26 78.00 1200.00 296 687 0.490 10000.000 0.000 -0.472
27 81.00 1200.00 265 682 0.490 10000.000 0.000 -0.472
28 84.00 1200.00 292 703 0.490 10000.000 0.000 -0.472
29 87.00 1200.00 278 683 0.490 10000.000 0.000 -0.472
30 90.00 1200.00 282 678 0.490 10000.000 0.000 -0.472
31 93.00 1200.00 257 631 0.490 10000.000 0.000 -0.472
32 96.00 1200.00 289 606 0.490 10000.000 0.000 -0.472
33 99.00 1200.00 254 635 0.490 10000.000 0.000 -0.472
34 102.00 1200.00 270 583 0.490 10000.000 0.000 -0.472
35 105.00 1200.00 268 661 0.490 10000.000 0.000 -0.472
36 108.00 1200.00 272 654 0.490 10000.000 0.000 -0.472
37 111.00 1200.00 264 583 0.490 10000.000 0.000 -0.472
38 114.00 1200.00 289 577 0.490 10000.000 0.000 -0.472
39 117.00 1200.00 257 596 0.490 10000.000 0.000 -0.472
40 120.00 1200.00 266 578 0.490 10000.000 0.000 -0.472
41 123.00 1200.00 255 593 0.490 10000.000 0.000 -0.472
42 126.00 1200.00 292 643 0.490 10000.000 0.000 -0.472
43 129.00 1200.00 277 623 0.490 10000.000 0.000 -0.472
44 132.00 1200.00 263 652 0.490 10000.000 0.000 -0.472
45 135.00 1200.00 240 634 0.490 10000.000 0.000 -0.472
46 138.00 1200.00 266 678 0.490 10000.000 0.000 -0.472
47 141.00 1200.00 286 674 0.490 10000.000 0.000 -0.472
48 144.00 1200.00 275 684 0.490 10000.000 0.000 -0.472
49 147.00 1200.00 253 665 0.490 10000.000 0.000 -0.472
50 150.00 1200.00 243 700 0.490 10000.000 0.000 -0.472
51 153.00 1200.00 282 652 0.490 10000.000 0.000 -0.472
52 156.00 1200.00 265 723 0.490 10000.000 0.000 -0.472
53 159.00 1200.00 244 725 0.490 10000.000 0.000 -0.472
54 162.00 1200.00 260 682 0.490 10000.000 0.000 -0.472
55 165.00 1200.00 286 689 0.490 10000.000 0.000 -0.472
56 168.00 1200.00 266 738 0.490 10000.000 0.000 -0.472
57 171.00 1200.00 277 718 0.490 10000.000 0.000 -0.472
58 174.00 1200.00 276 683 0.490 10000.000 0.000 -0.472
59 177.00 1200.00 273 695 0.490 10000.000 0.000 -0.472
60 180.00 1200.00 287 673 0.490 10000.000 0.000 -0.472
61 183.00 1200.00 266 736 0.490 10000.000 0.000 -0.472
62 186.00 1200.00 252 610 0.490 10000.000 0.000 -0.472
63 189.00 1200.00 302 665 0.490 10000.000 0.000 -0.472
64 192.00 1200.00 308 622 0.490 10000.000 0.000 -0.472
65 195.00 1200.00 276 639 0.490 10000.000 0.000 -0.472
66 198.00 1200.00 290 654 0.490 10000.000 0.000 -0.472
67 201.00 1200.00 272 643 0.490 10000.000 0.000 -0.472
68 204.00 1200.00 262 659 0.490 10000.000 0.000 -0.472
69 207.00 1200.00 267 635 0.490 10000.000 0.000 -0.472
70 210.00 1200.00 276 659 0.490 10000.000 0.000 -0.472
71 213.00 1200.00 293 606 0.490 10000.000 0.000 -0.472
72 216.00 1200.00 265 608 0.490 10000.000 0.000 -0.472
73 219.00 1200.00 317 620 0.490 10000.000 0.000 -0.472
74 222.00 1200.00 273 606 0.490 10000.000 0.000 -0.472
75 225.00 1200.00 236 642 0.490 10000.000 0.000 -0.472
76 228.00 1200.00 255 663 0.490 10000.000 0.000 -0.472
77 231.00 1200.00 224 642 0.490 10000.000 0.000 -0.472
78 234.00 1200.00 280 655 0.490 10000.000 0.000 -0.472
79 237.00 1200.00 249 658 0.490 10000.000 0.000 -0.472
80 240.00 1200.00 266 670 0.490 10000.000 0.000 -0.472
81 243.00 1200.00 281 671 0.490 10000.000 0.000 -0.472
82 246.00 1200.00 269 686 0.490 10000.000 0.000 -0.472
83 249.00 1200.00 241 679 0.490 10000.000 0.000 -0.472
84 252.00 1200.00 297 706 0.490 10000.000 0.000 -0.472
85 255.00 1200.00 276 663 0.490 10000.000 0.000 -0.472
86 258.00 1200.00 239 699 0.490 10000.000 0.000 -0.472
87 261.00 1200.00 280 710 0.490 10000.000 0.000 -0.472
88 264.00 1200.00 257 684 0.490 10000.000 0.000 -0.472
89 267.00 1200.00 283 685 0.490 10000.000 0.000 -0.472
90 270.00 1200.00 254 714 0.490 10000.000 0.000 -0.472
91 273.00 1200.00 230 646 0.490 10000.000 0.000 -0.472
92 276.00 1200.00 273 695 0.490 10000.000 0.000 -0.472
93 279.00 1200.00 250 696 0.490 10000.000 0.000 -0.472
94 282.00 1200.00 280 647 0.490 10000.000 0.000 -0.472
95 285.00 1200.00 293 638 0.490 10000.000 0.000 -0.472
96 288.00 1200.00 303 698 0.490 10000.000 0.000 -0.472
97 291.00 1200.00 258 684 0.490 10000.000 0.000 -0.472
98 294.00 1200.00 274 703 0.490 10000.000 0.000 -0.472
99 297.00 1200.00 262 624 0.490 10000.000 0.000 -0.472
100 300.00 1200.00 263 657 0.490 10000.000 0.000 -0.472
101 303.00 1200.00 272 638 0.490 10000.000 0.000 -0.472
102 306.00 1200.00 267 654 0.490 10000.000 0.000 -0.472
103 309.00 1200.00 272 568 0.490 10000.000 0.000 -0.472
104 312.00 1200.00 279 628 0.490 10000.000 0.000 -0.472
105 315.00 1200.00 285 634 0.490 10000.000 0.000 -0.472
106 318.00 1200.00 290 616 0.490 10000.000 0.000 -0.472
107 321.00 1200.00 265 656 0.490 10000.000 0.000 -0.472
108 324.00 1200.00 263 618 0.490 10000.000 0.000 -0.472
109 327.00 1200.00 272 617 0.490 10000.000 0.000 -0.472
110 330.00 1200.00 303 664 0.490 10000.000 0.000 -0.472
111 333.00 1200.00 260 651 0.490 10000.000 0.000 -0.472
112 336.00 1200.00 270 674 0.490 10000.000 0.000 -0.472
113 339.00 1200.00 258 641 0.490 10000.000 0.000 -0.472
114 342.00 1200.00 278 692 0.490 10000.000 0.000 -0.472
115 345.00 1200.00 284 680 0.490 10000.000 0.000 -0.472
116 348.00 1200.00 265 730 0.490 10000.000 0.000 -0.472
117 351.00 1200.00 260 682 0.490 10000.000 0.000 -0.472
118 354.00 1200.00 261 714 0.490 10000.000 0.000 -0.472
119 357.00 1200.00 267 676 0.490 10000.000 0.000 -0.472
120 360.00 1200.00 292 730 0.490 10000.000 0.000 -0.472
121 363.00 1200.00 269 700 0.490 10000.000 0.000 -0.472
122 366.00 1200.00 252 659 0.490 10000.000 0.000 -0.472
123 369.00 1200.00 272 686 0.490 10000.000 0.000 -0.472
124 372.00 1200.00 268 735 0.490 10000.000 0.000 -0.472
125 375.00 1200.00 250 677 0.490 10000.000 0.000 -0.472
126 378.00 1200.00 270 704 0.490 10000.000 0.000 -0.472
127 381.00 1200.00 281 711 0.490 10000.000 0.000 -0.472
128 384.00 1200.00 238 674 0.490 10000.000 0.000 -0.472
129 387.00 1200.00 265 639 0.490 10000.000 0.000 -0.472
130 390.00 1200.00 295 725 0.490 10000.000 0.000 -0.472
131 393.00 1200.00 263 664 0.490 10000.000 0.000 -0.472
132 396.00 1200.00 284 635 0.490 10000.000 0.000 -0.472
133 399.00 1200.00 265 667 0.490 10000.000 0.000 -0.472
134 402.00 1200.00 263 685 0.490 10000.000 0.000 -0.472
135 405.00 1200.00 274 653 0.490 10000.000 0.000 -0.472
136 408.00 1200.00 287 599 0.490 10000.000 0.000 -0.472
137 411.00 1200.00 285 647 0.490 10000.000 0.000 -0.472
138 414.00 1200.00 294 605 0.490 10000.000 0.000 -0.472
139 417.00 1200.00 273 606 0.490 10000.000 0.000 -0.472
140 420.00 1200.00 273 687 0.490 10000.000 0.000 -0.472
141 423.00 1200.00 260 634 0.490 10000.000 0.000 -0.472
