# BinNR microsec tot-time (s)  O-Beam AUX Ampl(V) f(Hz) phase(deg) chi(pos)
0 0.00 1200.02 138 150 1.600 10000.000 0.000 0.176
1 3.00 1200.02 236 280 1.600 10000.000 0.000 0.176
2 6.00 1200.02 248 263 1.600 10000.000 0.000 0.176
3 9.00 1200.02 223 258 1.600 10000.000 0.000 0.176
4 12.00 1200.02 217 221 1.600 10000.000 0.000 0.176
5 15.00 1200.02 188 184 1.600 10000.000 0.000 0.176
6 18.00 1200.02 191 163 1.600 10000.000 0.000 0.176
7 21.00 1200.02 190 164 1.600 10000.000 0.000 0.176
8 24.00 1200.02 185 132 1.600 10000.000 0.000 0.176
9 27.00 1200.02 166 141 1.600 10000.000 0.000 0.176
10 30.00 1200.02 161 137 1.600 10000.000 0.000 0.176
11 33.00 1200.02 152 167 1.600 10000.000 0.000 0.176
12 36.00 1200.02 129 170 1.600 10000.000 0.000 0.176
13 39.00 1200.02 116 220 1.600 10000.000 0.000 0.176
14 42.00 1200.02 112 241 1.600 10000.000 0.000 0.176
15 45.00 1200.02 110 299 1.600 10000.000 0.000 0.176
16 48.00 1200.02 109 336 1.600 10000.000 0.000 0.176
17 51.00 1200.02 106 388 1.600 10000.000 0.000 0.176
18 54.00 1200.02 108 414 1.600 10000.000 0.000 0.176
19 57.00 1200.02 126 451 1.600 10000.000 0.000 0.176
20 60.00 1200.02 103 488 1.600 10000.000 0.000 0.176
21 63.00 1200.02 105 493 1.600 10000.000 0.000 0.176
22 66.00 1200.02 136 527 1.600 10000.000 0.000 0.176
23 69.00 1200.02 119 452 1.600 10000.000 0.000 0.176
24 72.00 1200.02 151 506 1.600 10000.000 0.000 0.176
25 75.00 1200.02 183 451 1.600 10000.000 0.000 0.176
26 78.00 1200.02 184 413 1.600 10000.000 0.000 0.176
27 81.00 1200.02 175 359 1.600 10000.000 0.000 0.176
28 84.00 1200.02 185 321 1.600 10000.000 0.000 0.176
29 87.00 1200.02 202 278 1.600 10000.000 0.000 0.176
30 90.00 1200.02 211 235 1.600 10000.000 0.000 0.176
31 93.00 1200.02 212 192 1.600 10000.000 0.000 0.176
32 96.00 1200.02 229 184 1.600 10000.000 0.000 0.176
33 99.00 1200.02 257 157 1.600 10000.000 0.000 0.176
34 102.00 1200.02 232 134 1.600 10000.000 0.000 0.176
35 105.00 1200.02 222 113 1.600 10000.000 0.000 0.176
36 108.00 1200.02 226 127 1.600 10000.000 0.000 0.176
37 111.00 1200.02 245 113 1.600 10000.000 0.000 0.176
38 114.00 1200.02 201 112 1.600 10000.000 0.000 0.176
39 117.00 1200.02 212 135 1.600 10000.000 0.000 0.176
40 120.00 1200.02 178 118 1.600 10000.000 0.000 0.176
41 123.00 1200.02 174 115 1.600 10000.000 0.000 0.176
42 126.00 1200.02 178 141 1.600 10000.000 0.000 0.176
43 129.00 1200.02 151 125 1.600 10000.000 0.000 0.176
44 132.00 1200.02 152 151 1.600 10000.000 0.000 0.176
45 135.00 1200.02 146 193 1.600 10000.000 0.000 0.176
46 138.00 1200.02 130 213 1.600 10000.000 0.000 0.176
47 141.00 1200.02 110 239 1.600 10000.000 0.000 0.176
48 144.00 1200.02 135 347 1.600 10000.000 0.000 0.176
49 147.00 1200.02 107 352 1.600 10000.000 0.000 0.176
50 150.00 1200.02 96 380 1.600 10000.000 0.000 0.176
51 153.00 1200.02 95 442 1.600 10000.000 0.000 0.176
52 156.00 1200.02 119 466 1.600 10000.000 0.000 0.176
53 159.00 1200.02 120 496 1.600 10000.000 0.000 0.176
54 162.00 1200.02 130 495 1.600 10000.000 0.000 0.176
55 165.00 1200.02 121 459 1.600 10000.000 0.000 0.176
56 168.00 1200.02 131 470 1.600 10000.000 0.000 0.176
57 171.00 1200.02 129 476 1.600 10000.000 0.000 0.176
58 174.00 1200.02 145 404 1.600 10000.000 0.000 0.176
59 177.00 1200.02 150 432 1.600 10000.000 0.000 0.176
60 180.00 1200.02 197 372 1.600 10000.000 0.000 0.176
61 183.00 1200.02 181 363 1.600 10000.000 0.000 0.176
62 186.00 1200.02 196 292 1.600 10000.000 0.000 0.176
63 189.00 1200.02 203 243 1.600 10000.000 0.000 0.176
64 192.00 1200.02 223 223 1.600 10000.000 0.000 0.176
65 195.00 1200.02 221 165 1.600 10000.000 0.000 0.176
66 198.00 1200.02 237 160 1.600 10000.000 0.000 0.176
67 201.00 1200.02 243 146 1.600 10000.000 0.000 0.176
68 204.00 1200.02 246 134 1.600 10000.000 0.000 0.176
69 207.00 1200.02 231 122 1.600 10000.000 0.000 0.176
70 210.00 1200.02 206 113 1.600 10000.000 0.000 0.176
71 213.00 1200.02 212 129 1.600 10000.000 0.000 0.176
72 216.00 1200.02 200 129 1.600 10000.000 0.000 0.176
73 219.00 1200.02 223 117 1.600 10000.000 0.000 0.176
74 222.00 1200.02 186 142 1.600 10000.000 0.000 0.176
75 225.00 1200.02 154 106 1.600 10000.000 0.000 0.176
76 228.00 1200.02 173 131 1.600 10000.000 0.000 0.176
77 231.00 1200.02 166 166 1.600 10000.000 0.000 0.176
78 234.00 1200.02 142 186 1.600 10000.000 0.000 0.176
79 237.00 1200.02 130 202 1.600 10000.000 0.000 0.176
80 240.00 1200.02 113 274 1.600 10000.000 0.000 0.176
81 243.00 1200.02 112 318 1.600 10000.000 0.000 0.176
82 246.00 1200.02 115 356 1.600 10000.000 0.000 0.176
83 249.00 1200.02 140 358 1.600 10000.000 0.000 0.176
84 252.00 1200.02 138 422 1.600 10000.000 0.000 0.176
85 255.00 1200.02 136 455 1.600 10000.000 0.000 0.176
86 258.00 1200.02 126 477 1.600 10000.000 0.000 0.176
87 261.00 1200.02 167 458 1.600 10000.000 0.000 0.176
88 264.00 1200.02 147 513 1.600 10000.000 0.000 0.176
89 267.00 1200.02 180 455 1.600 10000.000 0.000 0.176
90 270.00 1200.02 174 471 1.600 10000.000 0.000 0.176
91 273.00 1200.02 134 471 1.600 10000.000 0.000 0.176
92 276.00 1200.02 158 439 1.600 10000.000 0.000 0.176
93 279.00 1200.02 169 372 1.600 10000.000 0.000 0.176
94 282.00 1200.02 146 387 1.600 10000.000 0.000 0.176
95 285.00 1200.02 142 270 1.600 10000.000 0.000 0.176
96 288.00 1200.02 143 263 1.600 10000.000 0.000 0.176
97 291.00 1200.02 129 247 1.600 10000.000 0.000 0.176
98 294.00 1200.02 127 212 1.600 10000.000 0.000 0.176
99 297.00 1200.02 145 151 1.600 10000.000 0.000 0.176
100 300.00 1200.02 129 149 1.600 10000.000 0.000 0.176
101 303.00 1200.02 134 138 1.600 10000.000 0.000 0.176
102 306.00 1200.02 161 110 1.600 10000.000 0.000 0.176
103 309.00 1200.02 136 114 1.600 10000.000 0.000 0.176
104 312.00 1200.02 168 104 1.600 10000.000 0.000 0.176
105 315.00 1200.02 206 111 1.600 10000.000 0.000 0.176
106 318.00 1200.02 179 127 1.600 10000.000 0.000 0.176
107 321.00 1200.02 186 115 1.600 10000.000 0.000 0.176
108 324.00 1200.02 212 135 1.600 10000.000 0.000 0.176
109 327.00 1200.02 240 132 1.600 10000.000 0.000 0.176
110 330.00 1200.02 227 146 1.600 10000.000 0.000 0.176
111 333.00 1200.02 219 175 1.600 10000.000 0.000 0.176
112 336.00 1200.02 244 208 1.600 10000.000 0.000 0.176
113 339.00 1200.02 239 211 1.600 10000.000 0.000 0.176
114 342.00 1200.02 206 263 1.600 10000.000 0.000 0.176
115 345.00 1200.02 231 335 1.600 10000.000 0.000 0.176
116 348.00 1200.02 214 381 1.600 10000.000 0.000 0.176
117 351.00 1200.02 207 390 1.600 10000.000 0.000 0.176
118 354.00 1200.02 229 426 1.600 10000.000 0.000 0.176
119 357.00 1200.02 205 486 1.600 10000.000 0.000 0.176
120 360.00 1200.02 160 465 1.600 10000.000 0.000 0.176
121 363.00 1200.02 168 500 1.600 10000.000 0.000 0.176
122 366.00 1200.02 154 519 1.600 10000.000 0.000 0.176
123 369.00 1200.02 123 488 1.600 10000.000 0.000 0.176
124 372.00 1200.02 138 455 1.600 10000.000 0.000 0.176
125 375.00 1200.02 100 422 1.600 10000.000 0.000 0.176
126 378.00 1200.02 105 414 1.600 10000.000 0.000 0.176
127 381.00 1200.02 100 347 1.600 10000.000 0.000 0.176
128 384.00 1200.02 115 336 1.600 10000.000 0.000 0.176
129 387.00 1200.02 114 296 1.600 10000.000 0.000 0.176
130 390.00 1200.02 108 238 1.600 10000.000 0.000 0.176
131 393.00 1200.02 110 205 1.600 10000.000 0.000 0.176
132 396.00 1200.02 118 183 1.600 10000.000 0.000 0.176
133 399.00 1200.02 146 156 1.600 10000.000 0.000 0.176
134 402.00 1200.02 154 149 1.600 10000.000 0.000 0.176
135 405.00 1200.02 115 111 1.600 10000.000 0.000 0.176
136 408.00 1200.02 138 114 1.600 10000.000 0.000 0.176
137 411.00 1200.02 180 152 1.600 10000.000 0.000 0.176
138 414.00 1200.02 174 165 1.600 10000.000 0.000 0.176
139 417.00 1200.02 167 161 1.600 10000.000 0.000 0.176
140 420.00 1200.02 216 182 1.600 10000.000 0.000 0.176
141 423.00 1200.02 235 211 1.600 10000.000 0.000 0.176
