# BinNR microsec tot-time (s)  O-Beam AUX Ampl(V) f(Hz) phase(deg) chi(pos)
0 0.00 1200.02 57 325 4.500 10000.000 0.000 0.011
1 3.00 1200.02 124 665 4.500 10000.000 0.000 0.011
2 6.00 1200.02 112 670 4.500 10000.000 0.000 0.011
3 9.00 1200.02 130 735 4.500 10000.000 0.000 0.011
4 12.00 1200.02 156 656 4.500 10000.000 0.000 0.011
5 15.00 1200.02 174 585 4.500 10000.000 0.000 0.011
6 18.00 1200.02 198 545 4.500 10000.000 0.000 0.011
7 21.00 1200.02 204 452 4.500 10000.000 0.000 0.011
8 24.00 1200.02 220 402 4.500 10000.000 0.000 0.011
9 27.00 1200.02 239 357 4.500 10000.000 0.000 0.011
10 30.00 1200.02 220 353 4.500 10000.000 0.000 0.011
11 33.00 1200.02 202 425 4.500 10000.000 0.000 0.011
12 36.00 1200.02 212 487 4.500 10000.000 0.000 0.011
13 39.00 1200.02 198 589 4.500 10000.000 0.000 0.011
14 42.00 1200.02 184 675 4.500 10000.000 0.000 0.011
15 45.00 1200.02 171 679 4.500 10000.000 0.000 0.011
16 48.00 1200.02 159 630 4.500 10000.000 0.000 0.011
17 51.00 1200.02 144 578 4.500 10000.000 0.000 0.011
18 54.00 1200.02 164 446 4.500 10000.000 0.000 0.011
19 57.00 1200.02 161 374 4.500 10000.000 0.000 0.011
20 60.00 1200.02 180 323 4.500 10000.000 0.000 0.011
21 63.00 1200.02 188 274 4.500 10000.000 0.000 0.011
22 66.00 1200.02 204 280 4.500 10000.000 0.000 0.011
23 69.00 1200.02 214 308 4.500 10000.000 0.000 0.011
24 72.00 1200.02 222 323 4.500 10000.000 0.000 0.011
25 75.00 1200.02 218 382 4.500 10000.000 0.000 0.011
26 78.00 1200.02 203 482 4.500 10000.000 0.000 0.011
27 81.00 1200.02 204 565 4.500 10000.000 0.000 0.011
28 84.00 1200.02 185 616 4.500 10000.000 0.000 0.011
29 87.00 1200.02 184 638 4.500 10000.000 0.000 0.011
30 90.00 1200.02 150 669 4.500 10000.000 0.000 0.011
31 93.00 1200.02 135 639 4.500 10000.000 0.000 0.011
32 96.00 1200.02 143 556 4.500 10000.000 0.000 0.011
33 99.00 1200.02 134 465 4.500 10000.000 0.000 0.011
34 102.00 1200.02 116 338 4.500 10000.000 0.000 0.011
35 105.00 1200.02 145 268 4.500 10000.000 0.000 0.011
36 108.00 1200.02 123 219 4.500 10000.000 0.000 0.011
37 111.00 1200.02 146 186 4.500 10000.000 0.000 0.011
38 114.00 1200.02 195 156 4.500 10000.000 0.000 0.011
39 117.00 1200.02 183 167 4.500 10000.000 0.000 0.011
40 120.00 1200.02 203 186 4.500 10000.000 0.000 0.011
41 123.00 1200.02 213 221 4.500 10000.000 0.000 0.011
42 126.00 1200.02 236 286 4.500 10000.000 0.000 0.011
43 129.00 1200.02 205 347 4.500 10000.000 0.000 0.011
44 132.00 1200.02 218 518 4.500 10000.000 0.000 0.011
45 135.00 1200.02 236 565 4.500 10000.000 0.000 0.011
46 138.00 1200.02 185 653 4.500 10000.000 0.000 0.011
47 141.00 1200.02 180 665 4.500 10000.000 0.000 0.011
48 144.00 1200.02 179 640 4.500 10000.000 0.000 0.011
49 147.00 1200.02 149 588 4.500 10000.000 0.000 0.011
50 150.00 1200.02 136 496 4.500 10000.000 0.000 0.011
51 153.00 1200.02 146 427 4.500 10000.000 0.000 0.011
52 156.00 1200.02 168 355 4.500 10000.000 0.000 0.011
53 159.00 1200.02 161 320 4.500 10000.000 0.000 0.011
54 162.00 1200.02 166 325 4.500 10000.000 0.000 0.011
55 165.00 1200.02 201 292 4.500 10000.000 0.000 0.011
56 168.00 1200.02 213 333 4.500 10000.000 0.000 0.011
57 171.00 1200.02 212 337 4.500 10000.000 0.000 0.011
58 174.00 1200.02 186 383 4.500 10000.000 0.000 0.011
59 177.00 1200.02 208 439 4.500 10000.000 0.000 0.011
60 180.00 1200.02 237 547 4.500 10000.000 0.000 0.011
61 183.00 1200.02 170 590 4.500 10000.000 0.000 0.011
62 186.00 1200.02 198 699 4.500 10000.000 0.000 0.011
63 189.00 1200.02 168 720 4.500 10000.000 0.000 0.011
64 192.00 1200.02 167 688 4.500 10000.000 0.000 0.011
65 195.00 1200.02 119 532 4.500 10000.000 0.000 0.011
66 198.00 1200.02 121 481 4.500 10000.000 0.000 0.011
67 201.00 1200.02 123 365 4.500 10000.000 0.000 0.011
68 204.00 1200.02 131 274 4.500 10000.000 0.000 0.011
69 207.00 1200.02 115 219 4.500 10000.000 0.000 0.011
70 210.00 1200.02 145 180 4.500 10000.000 0.000 0.011
71 213.00 1200.02 153 169 4.500 10000.000 0.000 0.011
72 216.00 1200.02 170 169 4.500 10000.000 0.000 0.011
73 219.00 1200.02 198 192 4.500 10000.000 0.000 0.011
74 222.00 1200.02 222 195 4.500 10000.000 0.000 0.011
75 225.00 1200.02 224 283 4.500 10000.000 0.000 0.011
76 228.00 1200.02 239 368 4.500 10000.000 0.000 0.011
77 231.00 1200.02 210 455 4.500 10000.000 0.000 0.011
78 234.00 1200.02 221 545 4.500 10000.000 0.000 0.011
79 237.00 1200.02 238 616 4.500 10000.000 0.000 0.011
80 240.00 1200.02 213 676 4.500 10000.000 0.000 0.011
81 243.00 1200.02 166 647 4.500 10000.000 0.000 0.011
82 246.00 1200.02 201 613 4.500 10000.000 0.000 0.011
83 249.00 1200.02 204 540 4.500 10000.000 0.000 0.011
84 252.00 1200.02 217 443 4.500 10000.000 0.000 0.011
85 255.00 1200.02 205 380 4.500 10000.000 0.000 0.011
86 258.00 1200.02 233 338 4.500 10000.000 0.000 0.011
87 261.00 1200.02 233 329 4.500 10000.000 0.000 0.011
88 264.00 1200.02 241 293 4.500 10000.000 0.000 0.011
89 267.00 1200.02 239 297 4.500 10000.000 0.000 0.011
90 270.00 1200.02 250 294 4.500 10000.000 0.000 0.011
91 273.00 1200.02 254 354 4.500 10000.000 0.000 0.011
92 276.00 1200.02 259 453 4.500 10000.000 0.000 0.011
93 279.00 1200.02 265 484 4.500 10000.000 0.000 0.011
94 282.00 1200.02 243 566 4.500 10000.000 0.000 0.011
95 285.00 1200.02 253 679 4.500 10000.000 0.000 0.011
96 288.00 1200.02 232 682 4.500 10000.000 0.000 0.011
97 291.00 1200.02 224 612 4.500 10000.000 0.000 0.011
98 294.00 1200.02 218 582 4.500 10000.000 0.000 0.011
99 297.00 1200.02 229 462 4.500 10000.000 0.000 0.011
100 300.00 1200.02 236 411 4.500 10000.000 0.000 0.011
101 303.00 1200.02 244 325 4.500 10000.000 0.000 0.011
102 306.00 1200.02 246 247 4.500 10000.000 0.000 0.011
103 309.00 1200.02 216 209 4.500 10000.000 0.000 0.011
104 312.00 1200.02 227 169 4.500 10000.000 0.000 0.011
105 315.00 1200.02 221 171 4.500 10000.000 0.000 0.011
106 318.00 1200.02 192 173 4.500 10000.000 0.000 0.011
107 321.00 1200.02 174 204 4.500 10000.000 0.000 0.011
108 324.00 1200.02 169 253 4.500 10000.000 0.000 0.011
109 327.00 1200.02 162 294 4.500 10000.000 0.000 0.011
110 330.00 1200.02 144 403 4.500 10000.000 0.000 0.011
111 333.00 1200.02 110 531 4.500 10000.000 0.000 0.011
112 336.00 1200.02 134 642 4.500 10000.000 0.000 0.011
113 339.00 1200.02 98 650 4.500 10000.000 0.000 0.011
114 342.00 1200.02 109 635 4.500 10000.000 0.000 0.011
115 345.00 1200.02 135 612 4.500 10000.000 0.000 0.011
116 348.00 1200.02 154 591 4.500 10000.000 0.000 0.011
117 351.00 1200.02 188 482 4.500 10000.000 0.000 0.011
118 354.00 1200.02 227 400 4.500 10000.000 0.000 0.011
119 357.00 1200.02 198 331 4.500 10000.000 0.000 0.011
120 360.00 1200.02 226 296 4.500 10000.000 0.000 0.011
121 363.00 1200.02 197 275 4.500 10000.000 0.000 0.011
122 366.00 1200.02 211 316 4.500 10000.000 0.000 0.011
123 369.00 1200.02 216 285 4.500 10000.000 0.000 0.011
124 372.00 1200.02 217 327 4.500 10000.000 0.000 0.011
125 375.00 1200.02 181 391 4.500 10000.000 0.000 0.011
126 378.00 1200.02 161 462 4.500 10000.000 0.000 0.011
127 381.00 1200.02 149 531 4.500 10000.000 0.000 0.011
128 384.00 1200.02 149 653 4.500 10000.000 0.000 0.011
129 387.00 1200.02 148 707 4.500 10000.000 0.000 0.011
130 390.00 1200.02 159 660 4.500 10000.000 0.000 0.011
131 393.00 1200.02 156 669 4.500 10000.000 0.000 0.011
132 396.00 1200.02 180 556 4.500 10000.000 0.000 0.011
133 399.00 1200.02 186 426 4.500 10000.000 0.000 0.011
134 402.00 1200.02 215 363 4.500 10000.000 0.000 0.011
135 405.00 1200.02 231 281 4.500 10000.000 0.000 0.011
136 408.00 1200.02 243 252 4.500 10000.000 0.000 0.011
137 411.00 1200.02 225 276 4.500 10000.000 0.000 0.011
138 414.00 1200.02 230 361 4.500 10000.000 0.000 0.011
139 417.00 1200.02 181 380 4.500 10000.000 0.000 0.011
140 420.00 1200.02 194 558 4.500 10000.000 0.000 0.011
141 423.00 1200.02 168 590 4.500 10000.000 0.000 0.011
