# BinNR microsec tot-time (s)  O-Beam AUX Ampl(V) f(Hz) phase(deg) chi(pos)
0 0.00 1200.00 131 237 2.150 10000.000 0.000 0.033
1 3.00 1200.00 270 485 2.150 10000.000 0.000 0.033
2 6.00 1200.00 261 450 2.150 10000.000 0.000 0.033
3 9.00 1200.00 261 472 2.150 10000.000 0.000 0.033
4 12.00 1200.00 271 438 2.150 10000.000 0.000 0.033
5 15.00 1200.00 261 350 2.150 10000.000 0.000 0.033
6 18.00 1200.00 245 311 2.150 10000.000 0.000 0.033
7 21.00 1200.00 244 278 2.150 10000.000 0.000 0.033
8 24.00 1200.00 220 221 2.150 10000.000 0.000 0.033
9 27.00 1200.00 230 264 2.150 10000.000 0.000 0.033
10 30.00 1200.00 203 261 2.150 10000.000 0.000 0.033
11 33.00 1200.00 197 252 2.150 10000.000 0.000 0.033
12 36.00 1200.00 167 305 2.150 10000.000 0.000 0.033
13 39.00 1200.00 181 358 2.150 10000.000 0.000 0.033
14 42.00 1200.00 146 425 2.150 10000.000 0.000 0.033
15 45.00 1200.00 152 519 2.150 10000.000 0.000 0.033
16 48.00 1200.00 134 530 2.150 10000.000 0.000 0.033
17 51.00 1200.00 120 602 2.150 10000.000 0.000 0.033
18 54.00 1200.00 138 647 2.150 10000.000 0.000 0.033
19 57.00 1200.00 152 706 2.150 10000.000 0.000 0.033
20 60.00 1200.00 144 669 2.150 10000.000 0.000 0.033
21 63.00 1200.00 140 713 2.150 10000.000 0.000 0.033
22 66.00 1200.00 168 689 2.150 10000.000 0.000 0.033
23 69.00 1200.00 195 675 2.150 10000.000 0.000 0.033
24 72.00 1200.00 177 695 2.150 10000.000 0.000 0.033
25 75.00 1200.00 217 663 2.150 10000.000 0.000 0.033
26 78.00 1200.00 230 654 2.150 10000.000 0.000 0.033
27 81.00 1200.00 249 636 2.150 10000.000 0.000 0.033
28 84.00 1200.00 257 578 2.150 10000.000 0.000 0.033
29 87.00 1200.00 236 481 2.150 10000.000 0.000 0.033
30 90.00 1200.00 295 473 2.150 10000.000 0.000 0.033
31 93.00 1200.00 241 407 2.150 10000.000 0.000 0.033
32 96.00 1200.00 291 311 2.150 10000.000 0.000 0.033
33 99.00 1200.00 258 265 2.150 10000.000 0.000 0.033
34 102.00 1200.00 258 210 2.150 10000.000 0.000 0.033
35 105.00 1200.00 278 195 2.150 10000.000 0.000 0.033
36 108.00 1200.00 245 180 2.150 10000.000 0.000 0.033
37 111.00 1200.00 265 156 2.150 10000.000 0.000 0.033
38 114.00 1200.00 271 158 2.150 10000.000 0.000 0.033
39 117.00 1200.00 253 158 2.150 10000.000 0.000 0.033
40 120.00 1200.00 249 148 2.150 10000.000 0.000 0.033
41 123.00 1200.00 233 164 2.150 10000.000 0.000 0.033
42 126.00 1200.00 229 202 2.150 10000.000 0.000 0.033
43 129.00 1200.00 223 228 2.150 10000.000 0.000 0.033
44 132.00 1200.00 212 311 2.150 10000.000 0.000 0.033
45 135.00 1200.00 170 310 2.150 10000.000 0.000 0.033
46 138.00 1200.00 174 408 2.150 10000.000 0.000 0.033
47 141.00 1200.00 142 475 2.150 10000.000 0.000 0.033
48 144.00 1200.00 131 537 2.150 10000.000 0.000 0.033
49 147.00 1200.00 147 543 2.150 10000.000 0.000 0.033
50 150.00 1200.00 124 566 2.150 10000.000 0.000 0.033
51 153.00 1200.00 140 654 2.150 10000.000 0.000 0.033
52 156.00 1200.00 133 721 2.150 10000.000 0.000 0.033
53 159.00 1200.00 149 688 2.150 10000.000 0.000 0.033
54 162.00 1200.00 164 730 2.150 10000.000 0.000 0.033
55 165.00 1200.00 173 699 2.150 10000.000 0.000 0.033
56 168.00 1200.00 176 717 2.150 10000.000 0.000 0.033
57 171.00 1200.00 193 683 2.150 10000.000 0.000 0.033
58 174.00 1200.00 202 698 2.150 10000.000 0.000 0.033
59 177.00 1200.00 217 658 2.150 10000.000 0.000 0.033
60 180.00 1200.00 236 678 2.150 10000.000 0.000 0.033
61 183.00 1200.00 258 646 2.150 10000.000 0.000 0.033
62 186.00 1200.00 249 526 2.150 10000.000 0.000 0.033
63 189.00 1200.00 273 419 2.150 10000.000 0.000 0.033
64 192.00 1200.00 266 392 2.150 10000.000 0.000 0.033
65 195.00 1200.00 265 345 2.150 10000.000 0.000 0.033
66 198.00 1200.00 284 293 2.150 10000.000 0.000 0.033
67 201.00 1200.00 250 254 2.150 10000.000 0.000 0.033
68 204.00 1200.00 275 201 2.150 10000.000 0.000 0.033
69 207.00 1200.00 277 182 2.150 10000.000 0.000 0.033
70 210.00 1200.00 286 169 2.150 10000.000 0.000 0.033
71 213.00 1200.00 265 155 2.150 10000.000 0.000 0.033
72 216.00 1200.00 252 174 2.150 10000.000 0.000 0.033
73 219.00 1200.00 262 160 2.150 10000.000 0.000 0.033
74 222.00 1200.00 245 182 2.150 10000.000 0.000 0.033
75 225.00 1200.00 249 175 2.150 10000.000 0.000 0.033
76 228.00 1200.00 236 241 2.150 10000.000 0.000 0.033
77 231.00 1200.00 191 268 2.150 10000.000 0.000 0.033
78 234.00 1200.00 174 298 2.150 10000.000 0.000 0.033
79 237.00 1200.00 159 377 2.150 10000.000 0.000 0.033
80 240.00 1200.00 169 433 2.150 10000.000 0.000 0.033
81 243.00 1200.00 156 517 2.150 10000.000 0.000 0.033
82 246.00 1200.00 192 581 2.150 10000.000 0.000 0.033
83 249.00 1200.00 168 626 2.150 10000.000 0.000 0.033
84 252.00 1200.00 188 586 2.150 10000.000 0.000 0.033
85 255.00 1200.00 183 651 2.150 10000.000 0.000 0.033
86 258.00 1200.00 173 703 2.150 10000.000 0.000 0.033
87 261.00 1200.00 197 680 2.150 10000.000 0.000 0.033
88 264.00 1200.00 214 714 2.150 10000.000 0.000 0.033
89 267.00 1200.00 229 664 2.150 10000.000 0.000 0.033
90 270.00 1200.00 235 692 2.150 10000.000 0.000 0.033
91 273.00 1200.00 249 679 2.150 10000.000 0.000 0.033
92 276.00 1200.00 219 726 2.150 10000.000 0.000 0.033
93 279.00 1200.00 223 636 2.150 10000.000 0.000 0.033
94 282.00 1200.00 202 575 2.150 10000.000 0.000 0.033
95 285.00 1200.00 208 548 2.150 10000.000 0.000 0.033
96 288.00 1200.00 178 469 2.150 10000.000 0.000 0.033
97 291.00 1200.00 200 408 2.150 10000.000 0.000 0.033
98 294.00 1200.00 183 374 2.150 10000.000 0.000 0.033
99 297.00 1200.00 187 301 2.150 10000.000 0.000 0.033
100 300.00 1200.00 188 267 2.150 10000.000 0.000 0.033
101 303.00 1200.00 158 222 2.150 10000.000 0.000 0.033
102 306.00 1200.00 216 189 2.150 10000.000 0.000 0.033
103 309.00 1200.00 229 178 2.150 10000.000 0.000 0.033
104 312.00 1200.00 216 167 2.150 10000.000 0.000 0.033
105 315.00 1200.00 223 164 2.150 10000.000 0.000 0.033
106 318.00 1200.00 252 176 2.150 10000.000 0.000 0.033
107 321.00 1200.00 237 180 2.150 10000.000 0.000 0.033
108 324.00 1200.00 254 209 2.150 10000.000 0.000 0.033
109 327.00 1200.00 261 229 2.150 10000.000 0.000 0.033
110 330.00 1200.00 281 267 2.150 10000.000 0.000 0.033
111 333.00 1200.00 237 361 2.150 10000.000 0.000 0.033
112 336.00 1200.00 278 369 2.150 10000.000 0.000 0.033
113 339.00 1200.00 246 447 2.150 10000.000 0.000 0.033
114 342.00 1200.00 295 511 2.150 10000.000 0.000 0.033
115 345.00 1200.00 262 529 2.150 10000.000 0.000 0.033
116 348.00 1200.00 274 611 2.150 10000.000 0.000 0.033
117 351.00 1200.00 251 632 2.150 10000.000 0.000 0.033
118 354.00 1200.00 253 676 2.150 10000.000 0.000 0.033
119 357.00 1200.00 249 700 2.150 10000.000 0.000 0.033
120 360.00 1200.00 208 762 2.150 10000.000 0.000 0.033
121 363.00 1200.00 216 699 2.150 10000.000 0.000 0.033
122 366.00 1200.00 202 759 2.150 10000.000 0.000 0.033
123 369.00 1200.00 209 657 2.150 10000.000 0.000 0.033
124 372.00 1200.00 186 671 2.150 10000.000 0.000 0.033
125 375.00 1200.00 171 736 2.150 10000.000 0.000 0.033
126 378.00 1200.00 162 636 2.150 10000.000 0.000 0.033
127 381.00 1200.00 152 571 2.150 10000.000 0.000 0.033
128 384.00 1200.00 136 581 2.150 10000.000 0.000 0.033
129 387.00 1200.00 145 520 2.150 10000.000 0.000 0.033
130 390.00 1200.00 137 451 2.150 10000.000 0.000 0.033
131 393.00 1200.00 143 346 2.150 10000.000 0.000 0.033
132 396.00 1200.00 157 310 2.150 10000.000 0.000 0.033
133 399.00 1200.00 176 285 2.150 10000.000 0.000 0.033
134 402.00 1200.00 183 225 2.150 10000.000 0.000 0.033
135 405.00 1200.00 199 196 2.150 10000.000 0.000 0.033
136 408.00 1200.00 221 180 2.150 10000.000 0.000 0.033
137 411.00 1200.00 222 200 2.150 10000.000 0.000 0.033
138 414.00 1200.00 217 233 2.150 10000.000 0.000 0.033
139 417.00 1200.00 243 291 2.150 10000.000 0.000 0.033
140 420.00 1200.00 269 333 2.150 10000.000 0.000 0.033
141 423.00 1200.00 251 352 2.150 10000.000 0.000 0.033
