# BinNR microsec tot-time (s)  O-Beam AUX Ampl(V) f(Hz) phase(deg) chi(pos)
0 0.00 1200.00 117 288 2.450 10000.000 0.000 -0.022
1 3.00 1200.00 225 523 2.450 10000.000 0.000 -0.022
2 6.00 1200.00 239 532 2.450 10000.000 0.000 -0.022
3 9.00 1200.00 246 505 2.450 10000.000 0.000 -0.022
4 12.00 1200.00 255 473 2.450 10000.000 0.000 -0.022
5 15.00 1200.00 223 391 2.450 10000.000 0.000 -0.022
6 18.00 1200.00 260 417 2.450 10000.000 0.000 -0.022
7 21.00 1200.00 228 349 2.450 10000.000 0.000 -0.022
8 24.00 1200.00 237 324 2.450 10000.000 0.000 -0.022
9 27.00 1200.00 217 291 2.450 10000.000 0.000 -0.022
10 30.00 1200.00 210 341 2.450 10000.000 0.000 -0.022
11 33.00 1200.00 193 351 2.450 10000.000 0.000 -0.022
12 36.00 1200.00 196 381 2.450 10000.000 0.000 -0.022
13 39.00 1200.00 190 448 2.450 10000.000 0.000 -0.022
14 42.00 1200.00 173 483 2.450 10000.000 0.000 -0.022
15 45.00 1200.00 200 512 2.450 10000.000 0.000 -0.022
16 48.00 1200.00 155 585 2.450 10000.000 0.000 -0.022
17 51.00 1200.00 146 592 2.450 10000.000 0.000 -0.022
18 54.00 1200.00 160 616 2.450 10000.000 0.000 -0.022
19 57.00 1200.00 183 677 2.450 10000.000 0.000 -0.022
20 60.00 1200.00 179 656 2.450 10000.000 0.000 -0.022
21 63.00 1200.00 161 640 2.450 10000.000 0.000 -0.022
22 66.00 1200.00 151 702 2.450 10000.000 0.000 -0.022
23 69.00 1200.00 190 670 2.450 10000.000 0.000 -0.022
24 72.00 1200.00 222 674 2.450 10000.000 0.000 -0.022
25 75.00 1200.00 229 680 2.450 10000.000 0.000 -0.022
26 78.00 1200.00 209 668 2.450 10000.000 0.000 -0.022
27 81.00 1200.00 249 635 2.450 10000.000 0.000 -0.022
28 84.00 1200.00 225 617 2.450 10000.000 0.000 -0.022
29 87.00 1200.00 245 496 2.450 10000.000 0.000 -0.022
30 90.00 1200.00 230 504 2.450 10000.000 0.000 -0.022
31 93.00 1200.00 219 444 2.450 10000.000 0.000 -0.022
32 96.00 1200.00 255 409 2.450 10000.000 0.000 -0.022
33 99.00 1200.00 216 321 2.450 10000.000 0.000 -0.022
34 102.00 1200.00 269 276 2.450 10000.000 0.000 -0.022
35 105.00 1200.00 238 285 2.450 10000.000 0.000 -0.022
36 108.00 1200.00 247 224 2.450 10000.000 0.000 -0.022
37 111.00 1200.00 226 229 2.450 10000.000 0.000 -0.022
38 114.00 1200.00 268 238 2.450 10000.000 0.000 -0.022
39 117.00 1200.00 253 235 2.450 10000.000 0.000 -0.022
40 120.00 1200.00 228 243 2.450 10000.000 0.000 -0.022
41 123.00 1200.00 218 244 2.450 10000.000 0.000 -0.022
42 126.00 1200.00 246 296 2.450 10000.000 0.000 -0.022
43 129.00 1200.00 199 340 2.450 10000.000 0.000 -0.022
44 132.00 1200.00 206 365 2.450 10000.000 0.000 -0.022
45 135.00 1200.00 185 393 2.450 10000.000 0.000 -0.022
46 138.00 1200.00 192 461 2.450 10000.000 0.000 -0.022
47 141.00 1200.00 163 497 2.450 10000.000 0.000 -0.022
48 144.00 1200.00 165 541 2.450 10000.000 0.000 -0.022
49 147.00 1200.00 161 627 2.450 10000.000 0.000 -0.022
50 150.00 1200.00 146 600 2.450 10000.000 0.000 -0.022
51 153.00 1200.00 165 643 2.450 10000.000 0.000 -0.022
52 156.00 1200.00 178 656 2.450 10000.000 0.000 -0.022
53 159.00 1200.00 174 634 2.450 10000.000 0.000 -0.022
54 162.00 1200.00 179 695 2.450 10000.000 0.000 -0.022
55 165.00 1200.00 185 659 2.450 10000.000 0.000 -0.022
56 168.00 1200.00 202 707 2.450 10000.000 0.000 -0.022
57 171.00 1200.00 204 632 2.450 10000.000 0.000 -0.022
58 174.00 1200.00 249 653 2.450 10000.000 0.000 -0.022
59 177.00 1200.00 241 648 2.450 10000.000 0.000 -0.022
60 180.00 1200.00 226 600 2.450 10000.000 0.000 -0.022
61 183.00 1200.00 223 620 2.450 10000.000 0.000 -0.022
62 186.00 1200.00 227 586 2.450 10000.000 0.000 -0.022
63 189.00 1200.00 247 541 2.450 10000.000 0.000 -0.022
64 192.00 1200.00 257 445 2.450 10000.000 0.000 -0.022
65 195.00 1200.00 237 411 2.450 10000.000 0.000 -0.022
66 198.00 1200.00 237 350 2.450 10000.000 0.000 -0.022
67 201.00 1200.00 246 335 2.450 10000.000 0.000 -0.022
68 204.00 1200.00 224 326 2.450 10000.000 0.000 -0.022
69 207.00 1200.00 244 254 2.450 10000.000 0.000 -0.022
70 210.00 1200.00 248 251 2.450 10000.000 0.000 -0.022
71 213.00 1200.00 225 240 2.450 10000.000 0.000 -0.022
72 216.00 1200.00 260 264 2.450 10000.000 0.000 -0.022
73 219.00 1200.00 216 269 2.450 10000.000 0.000 -0.022
74 222.00 1200.00 233 228 2.450 10000.000 0.000 -0.022
75 225.00 1200.00 213 269 2.450 10000.000 0.000 -0.022
76 228.00 1200.00 198 281 2.450 10000.000 0.000 -0.022
77 231.00 1200.00 181 335 2.450 10000.000 0.000 -0.022
78 234.00 1200.00 172 389 2.450 10000.000 0.000 -0.022
79 237.00 1200.00 188 424 2.450 10000.000 0.000 -0.022
80 240.00 1200.00 177 530 2.450 10000.000 0.000 -0.022
81 243.00 1200.00 173 559 2.450 10000.000 0.000 -0.022
82 246.00 1200.00 186 515 2.450 10000.000 0.000 -0.022
83 249.00 1200.00 181 658 2.450 10000.000 0.000 -0.022
84 252.00 1200.00 181 647 2.450 10000.000 0.000 -0.022
85 255.00 1200.00 190 651 2.450 10000.000 0.000 -0.022
86 258.00 1200.00 216 701 2.450 10000.000 0.000 -0.022
87 261.00 1200.00 193 667 2.450 10000.000 0.000 -0.022
88 264.00 1200.00 193 662 2.450 10000.000 0.000 -0.022
89 267.00 1200.00 210 695 2.450 10000.000 0.000 -0.022
90 270.00 1200.00 217 627 2.450 10000.000 0.000 -0.022
91 273.00 1200.00 231 631 2.450 10000.000 0.000 -0.022
92 276.00 1200.00 210 623 2.450 10000.000 0.000 -0.022
93 279.00 1200.00 226 590 2.450 10000.000 0.000 -0.022
94 282.00 1200.00 205 612 2.450 10000.000 0.000 -0.022
95 285.00 1200.00 247 558 2.450 10000.000 0.000 -0.022
96 288.00 1200.00 191 535 2.450 10000.000 0.000 -0.022
97 291.00 1200.00 213 448 2.450 10000.000 0.000 -0.022
98 294.00 1200.00 195 467 2.450 10000.000 0.000 -0.022
99 297.00 1200.00 217 414 2.450 10000.000 0.000 -0.022
100 300.00 1200.00 189 342 2.450 10000.000 0.000 -0.022
101 303.00 1200.00 179 314 2.450 10000.000 0.000 -0.022
102 306.00 1200.00 233 288 2.450 10000.000 0.000 -0.022
103 309.00 1200.00 201 274 2.450 10000.000 0.000 -0.022
104 312.00 1200.00 212 278 2.450 10000.000 0.000 -0.022
105 315.00 1200.00 246 267 2.450 10000.000 0.000 -0.022
106 318.00 1200.00 230 230 2.450 10000.000 0.000 -0.022
107 321.00 1200.00 249 261 2.450 10000.000 0.000 -0.022
108 324.00 1200.00 230 279 2.450 10000.000 0.000 -0.022
109 327.00 1200.00 263 289 2.450 10000.000 0.000 -0.022
110 330.00 1200.00 209 338 2.450 10000.000 0.000 -0.022
111 333.00 1200.00 207 360 2.450 10000.000 0.000 -0.022
112 336.00 1200.00 247 444 2.450 10000.000 0.000 -0.022
113 339.00 1200.00 244 474 2.450 10000.000 0.000 -0.022
114 342.00 1200.00 259 508 2.450 10000.000 0.000 -0.022
115 345.00 1200.00 226 578 2.450 10000.000 0.000 -0.022
116 348.00 1200.00 256 610 2.450 10000.000 0.000 -0.022
117 351.00 1200.00 236 639 2.450 10000.000 0.000 -0.022
118 354.00 1200.00 262 689 2.450 10000.000 0.000 -0.022
119 357.00 1200.00 201 612 2.450 10000.000 0.000 -0.022
120 360.00 1200.00 209 667 2.450 10000.000 0.000 -0.022
121 363.00 1200.00 191 675 2.450 10000.000 0.000 -0.022
122 366.00 1200.00 187 637 2.450 10000.000 0.000 -0.022
123 369.00 1200.00 183 650 2.450 10000.000 0.000 -0.022
124 372.00 1200.00 179 604 2.450 10000.000 0.000 -0.022
125 375.00 1200.00 198 642 2.450 10000.000 0.000 -0.022
126 378.00 1200.00 163 636 2.450 10000.000 0.000 -0.022
127 381.00 1200.00 146 614 2.450 10000.000 0.000 -0.022
128 384.00 1200.00 157 583 2.450 10000.000 0.000 -0.022
129 387.00 1200.00 171 537 2.450 10000.000 0.000 -0.022
130 390.00 1200.00 159 491 2.450 10000.000 0.000 -0.022
131 393.00 1200.00 181 467 2.450 10000.000 0.000 -0.022
132 396.00 1200.00 157 383 2.450 10000.000 0.000 -0.022
133 399.00 1200.00 174 353 2.450 10000.000 0.000 -0.022
134 402.00 1200.00 187 324 2.450 10000.000 0.000 -0.022
135 405.00 1200.00 191 279 2.450 10000.000 0.000 -0.022
136 408.00 1200.00 214 291 2.450 10000.000 0.000 -0.022
137 411.00 1200.00 222 300 2.450 10000.000 0.000 -0.022
138 414.00 1200.00 223 309 2.450 10000.000 0.000 -0.022
139 417.00 1200.00 219 299 2.450 10000.000 0.000 -0.022
140 420.00 1200.00 252 368 2.450 10000.000 0.000 -0.022
141 423.00 1200.00 246 415 2.450 10000.000 0.000 -0.022
