# BinNR microsec tot-time (s)  O-Beam AUX Ampl(V) f(Hz) phase(deg) chi(pos)
0 0.00 1200.00 64 332 4.220 10000.000 0.000 -0.022
1 3.00 1200.00 149 665 4.220 10000.000 0.000 -0.022
2 6.00 1200.00 145 745 4.220 10000.000 0.000 -0.022
3 9.00 1200.00 155 645 4.220 10000.000 0.000 -0.022
4 12.00 1200.00 178 639 4.220 10000.000 0.000 -0.022
5 15.00 1200.00 183 612 4.220 10000.000 0.000 -0.022
6 18.00 1200.00 202 533 4.220 10000.000 0.000 -0.022
7 21.00 1200.00 220 455 4.220 10000.000 0.000 -0.022
8 24.00 1200.00 227 412 4.220 10000.000 0.000 -0.022
9 27.00 1200.00 239 415 4.220 10000.000 0.000 -0.022
10 30.00 1200.00 237 368 4.220 10000.000 0.000 -0.022
11 33.00 1200.00 225 429 4.220 10000.000 0.000 -0.022
12 36.00 1200.00 237 521 4.220 10000.000 0.000 -0.022
13 39.00 1200.00 201 576 4.220 10000.000 0.000 -0.022
14 42.00 1200.00 171 677 4.220 10000.000 0.000 -0.022
15 45.00 1200.00 148 724 4.220 10000.000 0.000 -0.022
16 48.00 1200.00 154 655 4.220 10000.000 0.000 -0.022
17 51.00 1200.00 153 632 4.220 10000.000 0.000 -0.022
18 54.00 1200.00 152 570 4.220 10000.000 0.000 -0.022
19 57.00 1200.00 144 458 4.220 10000.000 0.000 -0.022
20 60.00 1200.00 186 374 4.220 10000.000 0.000 -0.022
21 63.00 1200.00 208 328 4.220 10000.000 0.000 -0.022
22 66.00 1200.00 209 344 4.220 10000.000 0.000 -0.022
23 69.00 1200.00 199 358 4.220 10000.000 0.000 -0.022
24 72.00 1200.00 206 392 4.220 10000.000 0.000 -0.022
25 75.00 1200.00 228 438 4.220 10000.000 0.000 -0.022
26 78.00 1200.00 212 566 4.220 10000.000 0.000 -0.022
27 81.00 1200.00 198 634 4.220 10000.000 0.000 -0.022
28 84.00 1200.00 202 657 4.220 10000.000 0.000 -0.022
29 87.00 1200.00 179 734 4.220 10000.000 0.000 -0.022
30 90.00 1200.00 195 691 4.220 10000.000 0.000 -0.022
31 93.00 1200.00 151 587 4.220 10000.000 0.000 -0.022
32 96.00 1200.00 150 565 4.220 10000.000 0.000 -0.022
33 99.00 1200.00 151 459 4.220 10000.000 0.000 -0.022
34 102.00 1200.00 156 382 4.220 10000.000 0.000 -0.022
35 105.00 1200.00 141 277 4.220 10000.000 0.000 -0.022
36 108.00 1200.00 162 230 4.220 10000.000 0.000 -0.022
37 111.00 1200.00 152 189 4.220 10000.000 0.000 -0.022
38 114.00 1200.00 190 164 4.220 10000.000 0.000 -0.022
39 117.00 1200.00 193 185 4.220 10000.000 0.000 -0.022
40 120.00 1200.00 213 216 4.220 10000.000 0.000 -0.022
41 123.00 1200.00 192 238 4.220 10000.000 0.000 -0.022
42 126.00 1200.00 226 297 4.220 10000.000 0.000 -0.022
43 129.00 1200.00 271 366 4.220 10000.000 0.000 -0.022
44 132.00 1200.00 220 445 4.220 10000.000 0.000 -0.022
45 135.00 1200.00 213 559 4.220 10000.000 0.000 -0.022
46 138.00 1200.00 215 653 4.220 10000.000 0.000 -0.022
47 141.00 1200.00 177 677 4.220 10000.000 0.000 -0.022
48 144.00 1200.00 163 705 4.220 10000.000 0.000 -0.022
49 147.00 1200.00 140 630 4.220 10000.000 0.000 -0.022
50 150.00 1200.00 178 600 4.220 10000.000 0.000 -0.022
51 153.00 1200.00 156 531 4.220 10000.000 0.000 -0.022
52 156.00 1200.00 168 455 4.220 10000.000 0.000 -0.022
53 159.00 1200.00 170 368 4.220 10000.000 0.000 -0.022
54 162.00 1200.00 174 363 4.220 10000.000 0.000 -0.022
55 165.00 1200.00 191 325 4.220 10000.000 0.000 -0.022
56 168.00 1200.00 216 360 4.220 10000.000 0.000 -0.022
57 171.00 1200.00 233 404 4.220 10000.000 0.000 -0.022
58 174.00 1200.00 219 444 4.220 10000.000 0.000 -0.022
59 177.00 1200.00 225 512 4.220 10000.000 0.000 -0.022
60 180.00 1200.00 252 586 4.220 10000.000 0.000 -0.022
61 183.00 1200.00 216 657 4.220 10000.000 0.000 -0.022
62 186.00 1200.00 224 684 4.220 10000.000 0.000 -0.022
63 189.00 1200.00 187 697 4.220 10000.000 0.000 -0.022
64 192.00 1200.00 174 650 4.220 10000.000 0.000 -0.022
65 195.00 1200.00 142 578 4.220 10000.000 0.000 -0.022
66 198.00 1200.00 117 475 4.220 10000.000 0.000 -0.022
67 201.00 1200.00 142 388 4.220 10000.000 0.000 -0.022
68 204.00 1200.00 142 286 4.220 10000.000 0.000 -0.022
69 207.00 1200.00 156 209 4.220 10000.000 0.000 -0.022
70 210.00 1200.00 153 220 4.220 10000.000 0.000 -0.022
71 213.00 1200.00 164 183 4.220 10000.000 0.000 -0.022
72 216.00 1200.00 183 218 4.220 10000.000 0.000 -0.022
73 219.00 1200.00 213 188 4.220 10000.000 0.000 -0.022
74 222.00 1200.00 225 227 4.220 10000.000 0.000 -0.022
75 225.00 1200.00 250 282 4.220 10000.000 0.000 -0.022
76 228.00 1200.00 245 360 4.220 10000.000 0.000 -0.022
77 231.00 1200.00 216 430 4.220 10000.000 0.000 -0.022
78 234.00 1200.00 224 545 4.220 10000.000 0.000 -0.022
79 237.00 1200.00 228 627 4.220 10000.000 0.000 -0.022
80 240.00 1200.00 190 664 4.220 10000.000 0.000 -0.022
81 243.00 1200.00 193 696 4.220 10000.000 0.000 -0.022
82 246.00 1200.00 235 657 4.220 10000.000 0.000 -0.022
83 249.00 1200.00 222 592 4.220 10000.000 0.000 -0.022
84 252.00 1200.00 204 521 4.220 10000.000 0.000 -0.022
85 255.00 1200.00 229 447 4.220 10000.000 0.000 -0.022
86 258.00 1200.00 267 387 4.220 10000.000 0.000 -0.022
87 261.00 1200.00 255 368 4.220 10000.000 0.000 -0.022
88 264.00 1200.00 238 367 4.220 10000.000 0.000 -0.022
89 267.00 1200.00 261 374 4.220 10000.000 0.000 -0.022
90 270.00 1200.00 271 355 4.220 10000.000 0.000 -0.022
91 273.00 1200.00 282 416 4.220 10000.000 0.000 -0.022
92 276.00 1200.00 278 491 4.220 10000.000 0.000 -0.022
93 279.00 1200.00 255 578 4.220 10000.000 0.000 -0.022
94 282.00 1200.00 253 650 4.220 10000.000 0.000 -0.022
95 285.00 1200.00 238 651 4.220 10000.000 0.000 -0.022
96 288.00 1200.00 222 729 4.220 10000.000 0.000 -0.022
97 291.00 1200.00 241 651 4.220 10000.000 0.000 -0.022
98 294.00 1200.00 201 596 4.220 10000.000 0.000 -0.022
99 297.00 1200.00 219 503 4.220 10000.000 0.000 -0.022
100 300.00 1200.00 220 410 4.220 10000.000 0.000 -0.022
101 303.00 1200.00 232 342 4.220 10000.000 0.000 -0.022
102 306.00 1200.00 241 257 4.220 10000.000 0.000 -0.022
103 309.00 1200.00 227 237 4.220 10000.000 0.000 -0.022
104 312.00 1200.00 229 197 4.220 10000.000 0.000 -0.022
105 315.00 1200.00 248 153 4.220 10000.000 0.000 -0.022
106 318.00 1200.00 231 153 4.220 10000.000 0.000 -0.022
107 321.00 1200.00 181 209 4.220 10000.000 0.000 -0.022
108 324.00 1200.00 191 252 4.220 10000.000 0.000 -0.022
109 327.00 1200.00 181 301 4.220 10000.000 0.000 -0.022
110 330.00 1200.00 143 410 4.220 10000.000 0.000 -0.022
111 333.00 1200.00 130 488 4.220 10000.000 0.000 -0.022
112 336.00 1200.00 161 588 4.220 10000.000 0.000 -0.022
113 339.00 1200.00 141 674 4.220 10000.000 0.000 -0.022
114 342.00 1200.00 151 679 4.220 10000.000 0.000 -0.022
115 345.00 1200.00 152 643 4.220 10000.000 0.000 -0.022
116 348.00 1200.00 205 651 4.220 10000.000 0.000 -0.022
117 351.00 1200.00 173 546 4.220 10000.000 0.000 -0.022
118 354.00 1200.00 206 491 4.220 10000.000 0.000 -0.022
119 357.00 1200.00 228 439 4.220 10000.000 0.000 -0.022
120 360.00 1200.00 224 405 4.220 10000.000 0.000 -0.022
121 363.00 1200.00 250 396 4.220 10000.000 0.000 -0.022
122 366.00 1200.00 234 337 4.220 10000.000 0.000 -0.022
123 369.00 1200.00 237 360 4.220 10000.000 0.000 -0.022
124 372.00 1200.00 183 401 4.220 10000.000 0.000 -0.022
125 375.00 1200.00 172 464 4.220 10000.000 0.000 -0.022
126 378.00 1200.00 176 501 4.220 10000.000 0.000 -0.022
127 381.00 1200.00 148 578 4.220 10000.000 0.000 -0.022
128 384.00 1200.00 163 648 4.220 10000.000 0.000 -0.022
129 387.00 1200.00 156 655 4.220 10000.000 0.000 -0.022
130 390.00 1200.00 164 665 4.220 10000.000 0.000 -0.022
131 393.00 1200.00 160 623 4.220 10000.000 0.000 -0.022
132 396.00 1200.00 154 548 4.220 10000.000 0.000 -0.022
133 399.00 1200.00 192 454 4.220 10000.000 0.000 -0.022
134 402.00 1200.00 206 350 4.220 10000.000 0.000 -0.022
135 405.00 1200.00 212 289 4.220 10000.000 0.000 -0.022
136 408.00 1200.00 249 281 4.220 10000.000 0.000 -0.022
137 411.00 1200.00 197 305 4.220 10000.000 0.000 -0.022
138 414.00 1200.00 212 360 4.220 10000.000 0.000 -0.022
139 417.00 1200.00 210 413 4.220 10000.000 0.000 -0.022
140 420.00 1200.00 215 534 4.220 10000.000 0.000 -0.022
141 423.00 1200.00 184 594 4.220 10000.000 0.000 -0.022
