# BinNR microsec tot-time (s)  O-Beam AUX Ampl(V) f(Hz) phase(deg) chi(pos)
0 0.00 1200.02 151 389 1.100 10000.000 0.000 -0.341
1 3.00 1200.02 332 852 1.100 10000.000 0.000 -0.341
2 6.00 1200.02 328 830 1.100 10000.000 0.000 -0.341
3 9.00 1200.02 325 833 1.100 10000.000 0.000 -0.341
4 12.00 1200.02 323 756 1.100 10000.000 0.000 -0.341
5 15.00 1200.02 338 787 1.100 10000.000 0.000 -0.341
6 18.00 1200.02 323 751 1.100 10000.000 0.000 -0.341
7 21.00 1200.02 306 734 1.100 10000.000 0.000 -0.341
8 24.00 1200.02 339 709 1.100 10000.000 0.000 -0.341
9 27.00 1200.02 304 693 1.100 10000.000 0.000 -0.341
10 30.00 1200.02 348 675 1.100 10000.000 0.000 -0.341
11 33.00 1200.02 342 688 1.100 10000.000 0.000 -0.341
12 36.00 1200.02 321 709 1.100 10000.000 0.000 -0.341
13 39.00 1200.02 302 658 1.100 10000.000 0.000 -0.341
14 42.00 1200.02 297 763 1.100 10000.000 0.000 -0.341
15 45.00 1200.02 298 744 1.100 10000.000 0.000 -0.341
16 48.00 1200.02 318 753 1.100 10000.000 0.000 -0.341
17 51.00 1200.02 316 732 1.100 10000.000 0.000 -0.341
18 54.00 1200.02 340 711 1.100 10000.000 0.000 -0.341
19 57.00 1200.02 344 727 1.100 10000.000 0.000 -0.341
20 60.00 1200.02 319 726 1.100 10000.000 0.000 -0.341
21 63.00 1200.02 326 748 1.100 10000.000 0.000 -0.341
22 66.00 1200.02 334 798 1.100 10000.000 0.000 -0.341
23 69.00 1200.02 324 792 1.100 10000.000 0.000 -0.341
24 72.00 1200.02 350 776 1.100 10000.000 0.000 -0.341
25 75.00 1200.02 339 764 1.100 10000.000 0.000 -0.341
26 78.00 1200.02 317 841 1.100 10000.000 0.000 -0.341
27 81.00 1200.02 313 804 1.100 10000.000 0.000 -0.341
28 84.00 1200.02 356 809 1.100 10000.000 0.000 -0.341
29 87.00 1200.02 296 830 1.100 10000.000 0.000 -0.341
30 90.00 1200.02 352 838 1.100 10000.000 0.000 -0.341
31 93.00 1200.02 317 842 1.100 10000.000 0.000 -0.341
32 96.00 1200.02 358 875 1.100 10000.000 0.000 -0.341
33 99.00 1200.02 332 836 1.100 10000.000 0.000 -0.341
34 102.00 1200.02 339 824 1.100 10000.000 0.000 -0.341
35 105.00 1200.02 328 812 1.100 10000.000 0.000 -0.341
36 108.00 1200.02 340 862 1.100 10000.000 0.000 -0.341
37 111.00 1200.02 315 773 1.100 10000.000 0.000 -0.341
38 114.00 1200.02 314 821 1.100 10000.000 0.000 -0.341
39 117.00 1200.02 341 757 1.100 10000.000 0.000 -0.341
40 120.00 1200.02 328 744 1.100 10000.000 0.000 -0.341
41 123.00 1200.02 314 736 1.100 10000.000 0.000 -0.341
42 126.00 1200.02 303 765 1.100 10000.000 0.000 -0.341
43 129.00 1200.02 325 705 1.100 10000.000 0.000 -0.341
44 132.00 1200.02 332 688 1.100 10000.000 0.000 -0.341
45 135.00 1200.02 320 707 1.100 10000.000 0.000 -0.341
46 138.00 1200.02 318 708 1.100 10000.000 0.000 -0.341
47 141.00 1200.02 306 621 1.100 10000.000 0.000 -0.341
48 144.00 1200.02 295 726 1.100 10000.000 0.000 -0.341
49 147.00 1200.02 340 751 1.100 10000.000 0.000 -0.341
50 150.00 1200.02 322 679 1.100 10000.000 0.000 -0.341
51 153.00 1200.02 323 744 1.100 10000.000 0.000 -0.341
52 156.00 1200.02 311 735 1.100 10000.000 0.000 -0.341
53 159.00 1200.02 310 715 1.100 10000.000 0.000 -0.341
54 162.00 1200.02 307 749 1.100 10000.000 0.000 -0.341
55 165.00 1200.02 312 720 1.100 10000.000 0.000 -0.341
56 168.00 1200.02 334 809 1.100 10000.000 0.000 -0.341
57 171.00 1200.02 335 809 1.100 10000.000 0.000 -0.341
58 174.00 1200.02 340 841 1.100 10000.000 0.000 -0.341
59 177.00 1200.02 357 819 1.100 10000.000 0.000 -0.341
60 180.00 1200.02 373 809 1.100 10000.000 0.000 -0.341
61 183.00 1200.02 369 867 1.100 10000.000 0.000 -0.341
62 186.00 1200.02 331 856 1.100 10000.000 0.000 -0.341
63 189.00 1200.02 338 874 1.100 10000.000 0.000 -0.341
64 192.00 1200.02 370 881 1.100 10000.000 0.000 -0.341
65 195.00 1200.02 315 911 1.100 10000.000 0.000 -0.341
66 198.00 1200.02 345 826 1.100 10000.000 0.000 -0.341
67 201.00 1200.02 343 898 1.100 10000.000 0.000 -0.341
68 204.00 1200.02 336 807 1.100 10000.000 0.000 -0.341
69 207.00 1200.02 351 835 1.100 10000.000 0.000 -0.341
70 210.00 1200.02 317 804 1.100 10000.000 0.000 -0.341
71 213.00 1200.02 323 795 1.100 10000.000 0.000 -0.341
72 216.00 1200.02 345 780 1.100 10000.000 0.000 -0.341
73 219.00 1200.02 307 730 1.100 10000.000 0.000 -0.341
74 222.00 1200.02 305 725 1.100 10000.000 0.000 -0.341
75 225.00 1200.02 270 716 1.100 10000.000 0.000 -0.341
76 228.00 1200.02 291 713 1.100 10000.000 0.000 -0.341
77 231.00 1200.02 301 699 1.100 10000.000 0.000 -0.341
78 234.00 1200.02 324 718 1.100 10000.000 0.000 -0.341
79 237.00 1200.02 315 699 1.100 10000.000 0.000 -0.341
80 240.00 1200.02 329 642 1.100 10000.000 0.000 -0.341
81 243.00 1200.02 286 671 1.100 10000.000 0.000 -0.341
82 246.00 1200.02 303 720 1.100 10000.000 0.000 -0.341
83 249.00 1200.02 314 694 1.100 10000.000 0.000 -0.341
84 252.00 1200.02 326 716 1.100 10000.000 0.000 -0.341
85 255.00 1200.02 310 724 1.100 10000.000 0.000 -0.341
86 258.00 1200.02 303 789 1.100 10000.000 0.000 -0.341
87 261.00 1200.02 348 727 1.100 10000.000 0.000 -0.341
88 264.00 1200.02 311 719 1.100 10000.000 0.000 -0.341
89 267.00 1200.02 334 802 1.100 10000.000 0.000 -0.341
90 270.00 1200.02 329 832 1.100 10000.000 0.000 -0.341
91 273.00 1200.02 344 846 1.100 10000.000 0.000 -0.341
92 276.00 1200.02 364 856 1.100 10000.000 0.000 -0.341
93 279.00 1200.02 357 838 1.100 10000.000 0.000 -0.341
94 282.00 1200.02 321 832 1.100 10000.000 0.000 -0.341
95 285.00 1200.02 374 850 1.100 10000.000 0.000 -0.341
96 288.00 1200.02 319 831 1.100 10000.000 0.000 -0.341
97 291.00 1200.02 399 836 1.100 10000.000 0.000 -0.341
98 294.00 1200.02 349 858 1.100 10000.000 0.000 -0.341
99 297.00 1200.02 341 792 1.100 10000.000 0.000 -0.341
100 300.00 1200.02 324 846 1.100 10000.000 0.000 -0.341
101 303.00 1200.02 319 822 1.100 10000.000 0.000 -0.341
102 306.00 1200.02 325 848 1.100 10000.000 0.000 -0.341
103 309.00 1200.02 328 845 1.100 10000.000 0.000 -0.341
104 312.00 1200.02 340 771 1.100 10000.000 0.000 -0.341
105 315.00 1200.02 294 752 1.100 10000.000 0.000 -0.341
106 318.00 1200.02 362 795 1.100 10000.000 0.000 -0.341
107 321.00 1200.02 374 772 1.100 10000.000 0.000 -0.341
108 324.00 1200.02 304 743 1.100 10000.000 0.000 -0.341
109 327.00 1200.02 346 721 1.100 10000.000 0.000 -0.341
110 330.00 1200.02 306 726 1.100 10000.000 0.000 -0.341
111 333.00 1200.02 282 674 1.100 10000.000 0.000 -0.341
112 336.00 1200.02 325 670 1.100 10000.000 0.000 -0.341
113 339.00 1200.02 318 672 1.100 10000.000 0.000 -0.341
114 342.00 1200.02 335 741 1.100 10000.000 0.000 -0.341
115 345.00 1200.02 313 659 1.100 10000.000 0.000 -0.341
116 348.00 1200.02 315 700 1.100 10000.000 0.000 -0.341
117 351.00 1200.02 338 662 1.100 10000.000 0.000 -0.341
118 354.00 1200.02 329 727 1.100 10000.000 0.000 -0.341
119 357.00 1200.02 318 735 1.100 10000.000 0.000 -0.341
120 360.00 1200.02 319 774 1.100 10000.000 0.000 -0.341
121 363.00 1200.02 291 771 1.100 10000.000 0.000 -0.341
122 366.00 1200.02 346 790 1.100 10000.000 0.000 -0.341
123 369.00 1200.02 354 809 1.100 10000.000 0.000 -0.341
124 372.00 1200.02 329 811 1.100 10000.000 0.000 -0.341
125 375.00 1200.02 323 792 1.100 10000.000 0.000 -0.341
126 378.00 1200.02 321 819 1.100 10000.000 0.000 -0.341
127 381.00 1200.02 333 843 1.100 10000.000 0.000 -0.341
128 384.00 1200.02 368 891 1.100 10000.000 0.000 -0.341
129 387.00 1200.02 374 863 1.100 10000.000 0.000 -0.341
130 390.00 1200.02 363 865 1.100 10000.000 0.000 -0.341
131 393.00 1200.02 342 822 1.100 10000.000 0.000 -0.341
132 396.00 1200.02 350 819 1.100 10000.000 0.000 -0.341
133 399.00 1200.02 333 832 1.100 10000.000 0.000 -0.341
134 402.00 1200.02 367 834 1.100 10000.000 0.000 -0.341
