# BinNR microsec tot-time (s)  O-Beam AUX Ampl(V) f(Hz) phase(deg) chi(pos)
0 0.00 1200.00 188 482 1.100 10000.000 0.000 -0.505
1 3.00 1200.00 350 949 1.100 10000.000 0.000 -0.505
2 6.00 1200.00 384 965 1.100 10000.000 0.000 -0.505
3 9.00 1200.00 346 1002 1.100 10000.000 0.000 -0.505
4 12.00 1200.00 361 977 1.100 10000.000 0.000 -0.505
5 15.00 1200.00 401 1024 1.100 10000.000 0.000 -0.505
6 18.00 1200.00 362 926 1.100 10000.000 0.000 -0.505
7 21.00 1200.00 328 914 1.100 10000.000 0.000 -0.505
8 24.00 1200.00 366 856 1.100 10000.000 0.000 -0.505
9 27.00 1200.00 384 925 1.100 10000.000 0.000 -0.505
10 30.00 1200.00 367 971 1.100 10000.000 0.000 -0.505
11 33.00 1200.00 361 901 1.100 10000.000 0.000 -0.505
12 36.00 1200.00 355 908 1.100 10000.000 0.000 -0.505
13 39.00 1200.00 365 881 1.100 10000.000 0.000 -0.505
14 42.00 1200.00 351 891 1.100 10000.000 0.000 -0.505
15 45.00 1200.00 364 956 1.100 10000.000 0.000 -0.505
16 48.00 1200.00 367 884 1.100 10000.000 0.000 -0.505
17 51.00 1200.00 326 907 1.100 10000.000 0.000 -0.505
18 54.00 1200.00 374 871 1.100 10000.000 0.000 -0.505
19 57.00 1200.00 375 938 1.100 10000.000 0.000 -0.505
20 60.00 1200.00 382 973 1.100 10000.000 0.000 -0.505
21 63.00 1200.00 352 905 1.100 10000.000 0.000 -0.505
22 66.00 1200.00 397 1015 1.100 10000.000 0.000 -0.505
23 69.00 1200.00 358 938 1.100 10000.000 0.000 -0.505
24 72.00 1200.00 398 925 1.100 10000.000 0.000 -0.505
25 75.00 1200.00 387 986 1.100 10000.000 0.000 -0.505
26 78.00 1200.00 379 1039 1.100 10000.000 0.000 -0.505
27 81.00 1200.00 384 1077 1.100 10000.000 0.000 -0.505
28 84.00 1200.00 374 1013 1.100 10000.000 0.000 -0.505
29 87.00 1200.00 354 1027 1.100 10000.000 0.000 -0.505
30 90.00 1200.00 379 1034 1.100 10000.000 0.000 -0.505
31 93.00 1200.00 376 999 1.100 10000.000 0.000 -0.505
32 96.00 1200.00 385 1061 1.100 10000.000 0.000 -0.505
33 99.00 1200.00 359 1023 1.100 10000.000 0.000 -0.505
34 102.00 1200.00 375 1041 1.100 10000.000 0.000 -0.505
35 105.00 1200.00 348 999 1.100 10000.000 0.000 -0.505
36 108.00 1200.00 372 1030 1.100 10000.000 0.000 -0.505
37 111.00 1200.00 343 980 1.100 10000.000 0.000 -0.505
38 114.00 1200.00 392 1020 1.100 10000.000 0.000 -0.505
39 117.00 1200.00 340 908 1.100 10000.000 0.000 -0.505
40 120.00 1200.00 394 945 1.100 10000.000 0.000 -0.505
41 123.00 1200.00 343 886 1.100 10000.000 0.000 -0.505
42 126.00 1200.00 397 929 1.100 10000.000 0.000 -0.505
43 129.00 1200.00 380 865 1.100 10000.000 0.000 -0.505
44 132.00 1200.00 327 936 1.100 10000.000 0.000 -0.505
45 135.00 1200.00 373 962 1.100 10000.000 0.000 -0.505
46 138.00 1200.00 346 886 1.100 10000.000 0.000 -0.505
47 141.00 1200.00 368 901 1.100 10000.000 0.000 -0.505
48 144.00 1200.00 387 882 1.100 10000.000 0.000 -0.505
49 147.00 1200.00 363 884 1.100 10000.000 0.000 -0.505
50 150.00 1200.00 343 1000 1.100 10000.000 0.000 -0.505
51 153.00 1200.00 386 912 1.100 10000.000 0.000 -0.505
52 156.00 1200.00 363 930 1.100 10000.000 0.000 -0.505
53 159.00 1200.00 336 918 1.100 10000.000 0.000 -0.505
54 162.00 1200.00 343 958 1.100 10000.000 0.000 -0.505
55 165.00 1200.00 373 932 1.100 10000.000 0.000 -0.505
56 168.00 1200.00 370 952 1.100 10000.000 0.000 -0.505
57 171.00 1200.00 376 940 1.100 10000.000 0.000 -0.505
58 174.00 1200.00 357 969 1.100 10000.000 0.000 -0.505
59 177.00 1200.00 382 1015 1.100 10000.000 0.000 -0.505
60 180.00 1200.00 364 1010 1.100 10000.000 0.000 -0.505
61 183.00 1200.00 362 986 1.100 10000.000 0.000 -0.505
62 186.00 1200.00 371 1005 1.100 10000.000 0.000 -0.505
63 189.00 1200.00 354 1061 1.100 10000.000 0.000 -0.505
64 192.00 1200.00 383 1010 1.100 10000.000 0.000 -0.505
65 195.00 1200.00 386 1027 1.100 10000.000 0.000 -0.505
66 198.00 1200.00 364 1059 1.100 10000.000 0.000 -0.505
67 201.00 1200.00 359 998 1.100 10000.000 0.000 -0.505
68 204.00 1200.00 393 1008 1.100 10000.000 0.000 -0.505
69 207.00 1200.00 374 1037 1.100 10000.000 0.000 -0.505
70 210.00 1200.00 365 975 1.100 10000.000 0.000 -0.505
71 213.00 1200.00 356 973 1.100 10000.000 0.000 -0.505
72 216.00 1200.00 316 1012 1.100 10000.000 0.000 -0.505
73 219.00 1200.00 377 918 1.100 10000.000 0.000 -0.505
74 222.00 1200.00 353 890 1.100 10000.000 0.000 -0.505
75 225.00 1200.00 367 967 1.100 10000.000 0.000 -0.505
76 228.00 1200.00 348 925 1.100 10000.000 0.000 -0.505
77 231.00 1200.00 350 936 1.100 10000.000 0.000 -0.505
78 234.00 1200.00 387 922 1.100 10000.000 0.000 -0.505
79 237.00 1200.00 350 941 1.100 10000.000 0.000 -0.505
80 240.00 1200.00 433 928 1.100 10000.000 0.000 -0.505
81 243.00 1200.00 348 855 1.100 10000.000 0.000 -0.505
82 246.00 1200.00 379 915 1.100 10000.000 0.000 -0.505
83 249.00 1200.00 365 923 1.100 10000.000 0.000 -0.505
84 252.00 1200.00 391 916 1.100 10000.000 0.000 -0.505
85 255.00 1200.00 357 940 1.100 10000.000 0.000 -0.505
86 258.00 1200.00 388 943 1.100 10000.000 0.000 -0.505
87 261.00 1200.00 353 920 1.100 10000.000 0.000 -0.505
88 264.00 1200.00 362 931 1.100 10000.000 0.000 -0.505
89 267.00 1200.00 363 977 1.100 10000.000 0.000 -0.505
90 270.00 1200.00 392 949 1.100 10000.000 0.000 -0.505
91 273.00 1200.00 374 964 1.100 10000.000 0.000 -0.505
92 276.00 1200.00 367 992 1.100 10000.000 0.000 -0.505
93 279.00 1200.00 357 1006 1.100 10000.000 0.000 -0.505
94 282.00 1200.00 373 955 1.100 10000.000 0.000 -0.505
95 285.00 1200.00 348 1016 1.100 10000.000 0.000 -0.505
96 288.00 1200.00 346 1014 1.100 10000.000 0.000 -0.505
97 291.00 1200.00 348 1038 1.100 10000.000 0.000 -0.505
98 294.00 1200.00 392 1037 1.100 10000.000 0.000 -0.505
99 297.00 1200.00 334 993 1.100 10000.000 0.000 -0.505
100 300.00 1200.00 348 992 1.100 10000.000 0.000 -0.505
101 303.00 1200.00 393 984 1.100 10000.000 0.000 -0.505
102 306.00 1200.00 412 932 1.100 10000.000 0.000 -0.505
103 309.00 1200.00 371 953 1.100 10000.000 0.000 -0.505
104 312.00 1200.00 360 1027 1.100 10000.000 0.000 -0.505
105 315.00 1200.00 392 978 1.100 10000.000 0.000 -0.505
106 318.00 1200.00 399 980 1.100 10000.000 0.000 -0.505
107 321.00 1200.00 367 945 1.100 10000.000 0.000 -0.505
108 324.00 1200.00 379 962 1.100 10000.000 0.000 -0.505
109 327.00 1200.00 370 942 1.100 10000.000 0.000 -0.505
110 330.00 1200.00 368 914 1.100 10000.000 0.000 -0.505
111 333.00 1200.00 344 931 1.100 10000.000 0.000 -0.505
112 336.00 1200.00 361 909 1.100 10000.000 0.000 -0.505
113 339.00 1200.00 390 868 1.100 10000.000 0.000 -0.505
114 342.00 1200.00 395 897 1.100 10000.000 0.000 -0.505
115 345.00 1200.00 360 891 1.100 10000.000 0.000 -0.505
116 348.00 1200.00 388 918 1.100 10000.000 0.000 -0.505
117 351.00 1200.00 355 941 1.100 10000.000 0.000 -0.505
118 354.00 1200.00 364 1040 1.100 10000.000 0.000 -0.505
119 357.00 1200.00 378 893 1.100 10000.000 0.000 -0.505
120 360.00 1200.00 369 963 1.100 10000.000 0.000 -0.505
121 363.00 1200.00 344 934 1.100 10000.000 0.000 -0.505
122 366.00 1200.00 372 1002 1.100 10000.000 0.000 -0.505
123 369.00 1200.00 357 983 1.100 10000.000 0.000 -0.505
124 372.00 1200.00 382 1067 1.100 10000.000 0.000 -0.505
125 375.00 1200.00 361 985 1.100 10000.000 0.000 -0.505
126 378.00 1200.00 379 1000 1.100 10000.000 0.000 -0.505
127 381.00 1200.00 353 971 1.100 10000.000 0.000 -0.505
128 384.00 1200.00 366 1000 1.100 10000.000 0.000 -0.505
129 387.00 1200.00 369 965 1.100 10000.000 0.000 -0.505
130 390.00 1200.00 373 1054 1.100 10000.000 0.000 -0.505
131 393.00 1200.00 342 1010 1.100 10000.000 0.000 -0.505
132 396.00 1200.00 366 1054 1.100 10000.000 0.000 -0.505
133 399.00 1200.00 371 1019 1.100 10000.000 0.000 -0.505
134 402.00 1200.00 388 1002 1.100 10000.000 0.000 -0.505
