# BinNR microsec tot-time (s)  O-Beam AUX Ampl(V) f(Hz) phase(deg) chi(pos)
0 0.00 1200.01 53 81 2.000 10000.000 0.000 -1.307
1 3.00 1200.01 148 183 2.000 10000.000 0.000 -1.307
2 6.00 1200.01 154 200 2.000 10000.000 0.000 -1.307
3 9.00 1200.01 166 216 2.000 10000.000 0.000 -1.307
4 12.00 1200.01 148 258 2.000 10000.000 0.000 -1.307
5 15.00 1200.01 157 265 2.000 10000.000 0.000 -1.307
6 18.00 1200.01 172 245 2.000 10000.000 0.000 -1.307
7 21.00 1200.01 155 247 2.000 10000.000 0.000 -1.307
8 24.00 1200.01 172 238 2.000 10000.000 0.000 -1.307
9 27.00 1200.01 153 201 2.000 10000.000 0.000 -1.307
10 30.00 1200.01 146 174 2.000 10000.000 0.000 -1.307
11 33.00 1200.01 158 166 2.000 10000.000 0.000 -1.307
12 36.00 1200.01 149 135 2.000 10000.000 0.000 -1.307
13 39.00 1200.01 114 133 2.000 10000.000 0.000 -1.307
14 42.00 1200.01 114 117 2.000 10000.000 0.000 -1.307
15 45.00 1200.01 131 135 2.000 10000.000 0.000 -1.307
16 48.00 1200.01 98 119 2.000 10000.000 0.000 -1.307
17 51.00 1200.01 118 166 2.000 10000.000 0.000 -1.307
18 54.00 1200.01 110 164 2.000 10000.000 0.000 -1.307
19 57.00 1200.01 127 204 2.000 10000.000 0.000 -1.307
20 60.00 1200.01 126 209 2.000 10000.000 0.000 -1.307
21 63.00 1200.01 89 229 2.000 10000.000 0.000 -1.307
22 66.00 1200.01 129 262 2.000 10000.000 0.000 -1.307
23 69.00 1200.01 103 251 2.000 10000.000 0.000 -1.307
24 72.00 1200.01 100 252 2.000 10000.000 0.000 -1.307
25 75.00 1200.01 119 230 2.000 10000.000 0.000 -1.307
26 78.00 1200.01 123 222 2.000 10000.000 0.000 -1.307
27 81.00 1200.01 98 177 2.000 10000.000 0.000 -1.307
28 84.00 1200.01 121 156 2.000 10000.000 0.000 -1.307
29 87.00 1200.01 115 141 2.000 10000.000 0.000 -1.307
30 90.00 1200.01 126 117 2.000 10000.000 0.000 -1.307
31 93.00 1200.01 148 113 2.000 10000.000 0.000 -1.307
32 96.00 1200.01 119 141 2.000 10000.000 0.000 -1.307
33 99.00 1200.01 128 145 2.000 10000.000 0.000 -1.307
34 102.00 1200.01 117 178 2.000 10000.000 0.000 -1.307
35 105.00 1200.01 142 232 2.000 10000.000 0.000 -1.307
36 108.00 1200.01 146 231 2.000 10000.000 0.000 -1.307
37 111.00 1200.01 190 231 2.000 10000.000 0.000 -1.307
38 114.00 1200.01 154 251 2.000 10000.000 0.000 -1.307
39 117.00 1200.01 169 260 2.000 10000.000 0.000 -1.307
40 120.00 1200.01 163 244 2.000 10000.000 0.000 -1.307
41 123.00 1200.01 162 250 2.000 10000.000 0.000 -1.307
42 126.00 1200.01 161 197 2.000 10000.000 0.000 -1.307
43 129.00 1200.01 144 192 2.000 10000.000 0.000 -1.307
44 132.00 1200.01 153 170 2.000 10000.000 0.000 -1.307
45 135.00 1200.01 128 137 2.000 10000.000 0.000 -1.307
46 138.00 1200.01 143 122 2.000 10000.000 0.000 -1.307
47 141.00 1200.01 134 133 2.000 10000.000 0.000 -1.307
48 144.00 1200.01 129 121 2.000 10000.000 0.000 -1.307
49 147.00 1200.01 114 125 2.000 10000.000 0.000 -1.307
50 150.00 1200.01 91 154 2.000 10000.000 0.000 -1.307
51 153.00 1200.01 110 142 2.000 10000.000 0.000 -1.307
52 156.00 1200.01 113 219 2.000 10000.000 0.000 -1.307
53 159.00 1200.01 110 238 2.000 10000.000 0.000 -1.307
54 162.00 1200.01 118 266 2.000 10000.000 0.000 -1.307
55 165.00 1200.01 127 270 2.000 10000.000 0.000 -1.307
56 168.00 1200.01 119 233 2.000 10000.000 0.000 -1.307
57 171.00 1200.01 100 259 2.000 10000.000 0.000 -1.307
58 174.00 1200.01 126 216 2.000 10000.000 0.000 -1.307
59 177.00 1200.01 102 199 2.000 10000.000 0.000 -1.307
60 180.00 1200.01 86 214 2.000 10000.000 0.000 -1.307
61 183.00 1200.01 121 160 2.000 10000.000 0.000 -1.307
62 186.00 1200.01 122 176 2.000 10000.000 0.000 -1.307
63 189.00 1200.01 102 126 2.000 10000.000 0.000 -1.307
64 192.00 1200.01 128 132 2.000 10000.000 0.000 -1.307
65 195.00 1200.01 110 133 2.000 10000.000 0.000 -1.307
66 198.00 1200.01 125 135 2.000 10000.000 0.000 -1.307
67 201.00 1200.01 143 153 2.000 10000.000 0.000 -1.307
68 204.00 1200.01 155 187 2.000 10000.000 0.000 -1.307
69 207.00 1200.01 155 210 2.000 10000.000 0.000 -1.307
70 210.00 1200.01 162 249 2.000 10000.000 0.000 -1.307
71 213.00 1200.01 166 230 2.000 10000.000 0.000 -1.307
72 216.00 1200.01 152 256 2.000 10000.000 0.000 -1.307
73 219.00 1200.01 163 265 2.000 10000.000 0.000 -1.307
74 222.00 1200.01 156 238 2.000 10000.000 0.000 -1.307
75 225.00 1200.01 157 237 2.000 10000.000 0.000 -1.307
76 228.00 1200.01 156 186 2.000 10000.000 0.000 -1.307
77 231.00 1200.01 160 179 2.000 10000.000 0.000 -1.307
78 234.00 1200.01 143 170 2.000 10000.000 0.000 -1.307
79 237.00 1200.01 155 136 2.000 10000.000 0.000 -1.307
80 240.00 1200.01 125 109 2.000 10000.000 0.000 -1.307
81 243.00 1200.01 122 121 2.000 10000.000 0.000 -1.307
82 246.00 1200.01 126 144 2.000 10000.000 0.000 -1.307
83 249.00 1200.01 115 137 2.000 10000.000 0.000 -1.307
84 252.00 1200.01 120 159 2.000 10000.000 0.000 -1.307
85 255.00 1200.01 131 176 2.000 10000.000 0.000 -1.307
86 258.00 1200.01 137 215 2.000 10000.000 0.000 -1.307
87 261.00 1200.01 123 236 2.000 10000.000 0.000 -1.307
88 264.00 1200.01 125 269 2.000 10000.000 0.000 -1.307
89 267.00 1200.01 123 232 2.000 10000.000 0.000 -1.307
90 270.00 1200.01 126 254 2.000 10000.000 0.000 -1.307
91 273.00 1200.01 132 247 2.000 10000.000 0.000 -1.307
92 276.00 1200.01 112 230 2.000 10000.000 0.000 -1.307
93 279.00 1200.01 93 184 2.000 10000.000 0.000 -1.307
94 282.00 1200.01 127 173 2.000 10000.000 0.000 -1.307
95 285.00 1200.01 109 141 2.000 10000.000 0.000 -1.307
96 288.00 1200.01 107 139 2.000 10000.000 0.000 -1.307
97 291.00 1200.01 117 135 2.000 10000.000 0.000 -1.307
98 294.00 1200.01 113 131 2.000 10000.000 0.000 -1.307
99 297.00 1200.01 125 135 2.000 10000.000 0.000 -1.307
100 300.00 1200.01 121 138 2.000 10000.000 0.000 -1.307
