# BinNR microsec tot-time (s)  O-Beam AUX Ampl(V) f(Hz) phase(deg) chi(pos)
0 0.00 1200.00 59 159 2.000 10000.000 0.000 1.285
1 3.00 1200.00 115 275 2.000 10000.000 0.000 1.285
2 6.00 1200.00 138 275 2.000 10000.000 0.000 1.285
3 9.00 1200.00 104 238 2.000 10000.000 0.000 1.285
4 12.00 1200.00 113 209 2.000 10000.000 0.000 1.285
5 15.00 1200.00 110 222 2.000 10000.000 0.000 1.285
6 18.00 1200.00 97 223 2.000 10000.000 0.000 1.285
7 21.00 1200.00 90 245 2.000 10000.000 0.000 1.285
8 24.00 1200.00 118 254 2.000 10000.000 0.000 1.285
9 27.00 1200.00 109 269 2.000 10000.000 0.000 1.285
10 30.00 1200.00 119 272 2.000 10000.000 0.000 1.285
11 33.00 1200.00 107 301 2.000 10000.000 0.000 1.285
12 36.00 1200.00 115 321 2.000 10000.000 0.000 1.285
13 39.00 1200.00 114 356 2.000 10000.000 0.000 1.285
14 42.00 1200.00 143 389 2.000 10000.000 0.000 1.285
15 45.00 1200.00 148 388 2.000 10000.000 0.000 1.285
16 48.00 1200.00 157 490 2.000 10000.000 0.000 1.285
17 51.00 1200.00 132 472 2.000 10000.000 0.000 1.285
18 54.00 1200.00 138 540 2.000 10000.000 0.000 1.285
19 57.00 1200.00 168 549 2.000 10000.000 0.000 1.285
20 60.00 1200.00 162 570 2.000 10000.000 0.000 1.285
21 63.00 1200.00 175 554 2.000 10000.000 0.000 1.285
22 66.00 1200.00 177 621 2.000 10000.000 0.000 1.285
23 69.00 1200.00 185 547 2.000 10000.000 0.000 1.285
24 72.00 1200.00 157 584 2.000 10000.000 0.000 1.285
25 75.00 1200.00 160 509 2.000 10000.000 0.000 1.285
26 78.00 1200.00 155 571 2.000 10000.000 0.000 1.285
27 81.00 1200.00 184 503 2.000 10000.000 0.000 1.285
28 84.00 1200.00 164 543 2.000 10000.000 0.000 1.285
29 87.00 1200.00 160 465 2.000 10000.000 0.000 1.285
30 90.00 1200.00 138 462 2.000 10000.000 0.000 1.285
31 93.00 1200.00 129 413 2.000 10000.000 0.000 1.285
32 96.00 1200.00 117 369 2.000 10000.000 0.000 1.285
33 99.00 1200.00 111 341 2.000 10000.000 0.000 1.285
34 102.00 1200.00 120 296 2.000 10000.000 0.000 1.285
35 105.00 1200.00 120 287 2.000 10000.000 0.000 1.285
36 108.00 1200.00 117 274 2.000 10000.000 0.000 1.285
37 111.00 1200.00 108 229 2.000 10000.000 0.000 1.285
38 114.00 1200.00 111 235 2.000 10000.000 0.000 1.285
39 117.00 1200.00 112 246 2.000 10000.000 0.000 1.285
40 120.00 1200.00 116 235 2.000 10000.000 0.000 1.285
41 123.00 1200.00 125 226 2.000 10000.000 0.000 1.285
42 126.00 1200.00 131 238 2.000 10000.000 0.000 1.285
43 129.00 1200.00 116 271 2.000 10000.000 0.000 1.285
44 132.00 1200.00 118 291 2.000 10000.000 0.000 1.285
45 135.00 1200.00 115 348 2.000 10000.000 0.000 1.285
46 138.00 1200.00 144 346 2.000 10000.000 0.000 1.285
47 141.00 1200.00 113 386 2.000 10000.000 0.000 1.285
48 144.00 1200.00 115 457 2.000 10000.000 0.000 1.285
49 147.00 1200.00 147 460 2.000 10000.000 0.000 1.285
50 150.00 1200.00 166 514 2.000 10000.000 0.000 1.285
51 153.00 1200.00 141 529 2.000 10000.000 0.000 1.285
52 156.00 1200.00 154 506 2.000 10000.000 0.000 1.285
53 159.00 1200.00 160 608 2.000 10000.000 0.000 1.285
54 162.00 1200.00 153 574 2.000 10000.000 0.000 1.285
55 165.00 1200.00 187 600 2.000 10000.000 0.000 1.285
56 168.00 1200.00 176 573 2.000 10000.000 0.000 1.285
57 171.00 1200.00 176 606 2.000 10000.000 0.000 1.285
58 174.00 1200.00 172 571 2.000 10000.000 0.000 1.285
59 177.00 1200.00 149 559 2.000 10000.000 0.000 1.285
60 180.00 1200.00 131 523 2.000 10000.000 0.000 1.285
61 183.00 1200.00 160 521 2.000 10000.000 0.000 1.285
62 186.00 1200.00 145 502 2.000 10000.000 0.000 1.285
63 189.00 1200.00 131 487 2.000 10000.000 0.000 1.285
64 192.00 1200.00 161 440 2.000 10000.000 0.000 1.285
65 195.00 1200.00 137 400 2.000 10000.000 0.000 1.285
66 198.00 1200.00 135 338 2.000 10000.000 0.000 1.285
67 201.00 1200.00 124 320 2.000 10000.000 0.000 1.285
68 204.00 1200.00 136 287 2.000 10000.000 0.000 1.285
69 207.00 1200.00 117 286 2.000 10000.000 0.000 1.285
70 210.00 1200.00 107 247 2.000 10000.000 0.000 1.285
71 213.00 1200.00 117 241 2.000 10000.000 0.000 1.285
72 216.00 1200.00 111 237 2.000 10000.000 0.000 1.285
73 219.00 1200.00 101 244 2.000 10000.000 0.000 1.285
74 222.00 1200.00 101 261 2.000 10000.000 0.000 1.285
75 225.00 1200.00 112 237 2.000 10000.000 0.000 1.285
76 228.00 1200.00 101 260 2.000 10000.000 0.000 1.285
77 231.00 1200.00 116 279 2.000 10000.000 0.000 1.285
78 234.00 1200.00 112 321 2.000 10000.000 0.000 1.285
79 237.00 1200.00 127 357 2.000 10000.000 0.000 1.285
80 240.00 1200.00 136 386 2.000 10000.000 0.000 1.285
81 243.00 1200.00 131 436 2.000 10000.000 0.000 1.285
82 246.00 1200.00 140 465 2.000 10000.000 0.000 1.285
83 249.00 1200.00 142 504 2.000 10000.000 0.000 1.285
84 252.00 1200.00 139 521 2.000 10000.000 0.000 1.285
85 255.00 1200.00 154 547 2.000 10000.000 0.000 1.285
86 258.00 1200.00 175 560 2.000 10000.000 0.000 1.285
87 261.00 1200.00 150 574 2.000 10000.000 0.000 1.285
88 264.00 1200.00 190 606 2.000 10000.000 0.000 1.285
89 267.00 1200.00 168 584 2.000 10000.000 0.000 1.285
90 270.00 1200.00 175 588 2.000 10000.000 0.000 1.285
91 273.00 1200.00 147 584 2.000 10000.000 0.000 1.285
92 276.00 1200.00 163 600 2.000 10000.000 0.000 1.285
93 279.00 1200.00 147 557 2.000 10000.000 0.000 1.285
94 282.00 1200.00 152 517 2.000 10000.000 0.000 1.285
95 285.00 1200.00 138 554 2.000 10000.000 0.000 1.285
96 288.00 1200.00 116 474 2.000 10000.000 0.000 1.285
97 291.00 1200.00 155 424 2.000 10000.000 0.000 1.285
98 294.00 1200.00 118 414 2.000 10000.000 0.000 1.285
99 297.00 1200.00 108 369 2.000 10000.000 0.000 1.285
100 300.00 1200.00 102 275 2.000 10000.000 0.000 1.285
