# BinNR microsec tot-time (s)  O-Beam AUX Ampl(V) f(Hz) phase(deg) chi(pos)
0 0.00 1200.00 65 135 1.100 10000.000 0.000 0.703
1 3.00 1200.00 120 264 1.100 10000.000 0.000 0.703
2 6.00 1200.00 93 272 1.100 10000.000 0.000 0.703
3 9.00 1200.00 128 300 1.100 10000.000 0.000 0.703
4 12.00 1200.00 126 296 1.100 10000.000 0.000 0.703
5 15.00 1200.00 114 262 1.100 10000.000 0.000 0.703
6 18.00 1200.00 121 289 1.100 10000.000 0.000 0.703
7 21.00 1200.00 128 274 1.100 10000.000 0.000 0.703
8 24.00 1200.00 122 320 1.100 10000.000 0.000 0.703
9 27.00 1200.00 124 302 1.100 10000.000 0.000 0.703
10 30.00 1200.00 119 269 1.100 10000.000 0.000 0.703
11 33.00 1200.00 119 280 1.100 10000.000 0.000 0.703
12 36.00 1200.00 132 288 1.100 10000.000 0.000 0.703
13 39.00 1200.00 118 281 1.100 10000.000 0.000 0.703
14 42.00 1200.00 133 274 1.100 10000.000 0.000 0.703
15 45.00 1200.00 118 240 1.100 10000.000 0.000 0.703
16 48.00 1200.00 123 292 1.100 10000.000 0.000 0.703
17 51.00 1200.00 107 302 1.100 10000.000 0.000 0.703
18 54.00 1200.00 127 266 1.100 10000.000 0.000 0.703
19 57.00 1200.00 126 287 1.100 10000.000 0.000 0.703
20 60.00 1200.00 117 295 1.100 10000.000 0.000 0.703
21 63.00 1200.00 106 286 1.100 10000.000 0.000 0.703
22 66.00 1200.00 120 267 1.100 10000.000 0.000 0.703
23 69.00 1200.00 125 258 1.100 10000.000 0.000 0.703
24 72.00 1200.00 116 243 1.100 10000.000 0.000 0.703
25 75.00 1200.00 123 265 1.100 10000.000 0.000 0.703
26 78.00 1200.00 129 278 1.100 10000.000 0.000 0.703
27 81.00 1200.00 132 271 1.100 10000.000 0.000 0.703
28 84.00 1200.00 121 273 1.100 10000.000 0.000 0.703
29 87.00 1200.00 109 256 1.100 10000.000 0.000 0.703
30 90.00 1200.00 139 232 1.100 10000.000 0.000 0.703
31 93.00 1200.00 114 263 1.100 10000.000 0.000 0.703
32 96.00 1200.00 112 281 1.100 10000.000 0.000 0.703
33 99.00 1200.00 142 255 1.100 10000.000 0.000 0.703
34 102.00 1200.00 132 283 1.100 10000.000 0.000 0.703
35 105.00 1200.00 111 243 1.100 10000.000 0.000 0.703
36 108.00 1200.00 115 248 1.100 10000.000 0.000 0.703
37 111.00 1200.00 124 283 1.100 10000.000 0.000 0.703
38 114.00 1200.00 117 267 1.100 10000.000 0.000 0.703
39 117.00 1200.00 116 261 1.100 10000.000 0.000 0.703
40 120.00 1200.00 138 286 1.100 10000.000 0.000 0.703
41 123.00 1200.00 132 266 1.100 10000.000 0.000 0.703
42 126.00 1200.00 135 270 1.100 10000.000 0.000 0.703
43 129.00 1200.00 125 325 1.100 10000.000 0.000 0.703
44 132.00 1200.00 120 285 1.100 10000.000 0.000 0.703
45 135.00 1200.00 122 270 1.100 10000.000 0.000 0.703
46 138.00 1200.00 125 291 1.100 10000.000 0.000 0.703
47 141.00 1200.00 123 328 1.100 10000.000 0.000 0.703
48 144.00 1200.00 116 280 1.100 10000.000 0.000 0.703
49 147.00 1200.00 115 268 1.100 10000.000 0.000 0.703
50 150.00 1200.00 136 285 1.100 10000.000 0.000 0.703
51 153.00 1200.00 125 275 1.100 10000.000 0.000 0.703
52 156.00 1200.00 113 253 1.100 10000.000 0.000 0.703
53 159.00 1200.00 105 291 1.100 10000.000 0.000 0.703
54 162.00 1200.00 130 273 1.100 10000.000 0.000 0.703
55 165.00 1200.00 121 263 1.100 10000.000 0.000 0.703
56 168.00 1200.00 124 265 1.100 10000.000 0.000 0.703
57 171.00 1200.00 125 249 1.100 10000.000 0.000 0.703
58 174.00 1200.00 143 277 1.100 10000.000 0.000 0.703
59 177.00 1200.00 109 272 1.100 10000.000 0.000 0.703
60 180.00 1200.00 138 265 1.100 10000.000 0.000 0.703
61 183.00 1200.00 136 277 1.100 10000.000 0.000 0.703
62 186.00 1200.00 105 245 1.100 10000.000 0.000 0.703
63 189.00 1200.00 120 249 1.100 10000.000 0.000 0.703
64 192.00 1200.00 134 250 1.100 10000.000 0.000 0.703
65 195.00 1200.00 129 254 1.100 10000.000 0.000 0.703
66 198.00 1200.00 120 265 1.100 10000.000 0.000 0.703
67 201.00 1200.00 115 262 1.100 10000.000 0.000 0.703
68 204.00 1200.00 113 266 1.100 10000.000 0.000 0.703
69 207.00 1200.00 137 282 1.100 10000.000 0.000 0.703
70 210.00 1200.00 135 269 1.100 10000.000 0.000 0.703
71 213.00 1200.00 104 260 1.100 10000.000 0.000 0.703
72 216.00 1200.00 126 262 1.100 10000.000 0.000 0.703
73 219.00 1200.00 117 270 1.100 10000.000 0.000 0.703
74 222.00 1200.00 133 298 1.100 10000.000 0.000 0.703
75 225.00 1200.00 115 299 1.100 10000.000 0.000 0.703
76 228.00 1200.00 125 316 1.100 10000.000 0.000 0.703
77 231.00 1200.00 112 300 1.100 10000.000 0.000 0.703
78 234.00 1200.00 100 293 1.100 10000.000 0.000 0.703
79 237.00 1200.00 147 273 1.100 10000.000 0.000 0.703
80 240.00 1200.00 114 279 1.100 10000.000 0.000 0.703
81 243.00 1200.00 120 262 1.100 10000.000 0.000 0.703
82 246.00 1200.00 122 241 1.100 10000.000 0.000 0.703
83 249.00 1200.00 113 308 1.100 10000.000 0.000 0.703
84 252.00 1200.00 141 294 1.100 10000.000 0.000 0.703
85 255.00 1200.00 127 287 1.100 10000.000 0.000 0.703
86 258.00 1200.00 108 277 1.100 10000.000 0.000 0.703
87 261.00 1200.00 114 261 1.100 10000.000 0.000 0.703
88 264.00 1200.00 133 274 1.100 10000.000 0.000 0.703
89 267.00 1200.00 98 250 1.100 10000.000 0.000 0.703
90 270.00 1200.00 131 306 1.100 10000.000 0.000 0.703
91 273.00 1200.00 118 274 1.100 10000.000 0.000 0.703
92 276.00 1200.00 109 282 1.100 10000.000 0.000 0.703
93 279.00 1200.00 121 252 1.100 10000.000 0.000 0.703
94 282.00 1200.00 111 274 1.100 10000.000 0.000 0.703
95 285.00 1200.00 118 252 1.100 10000.000 0.000 0.703
96 288.00 1200.00 124 265 1.100 10000.000 0.000 0.703
97 291.00 1200.00 133 247 1.100 10000.000 0.000 0.703
98 294.00 1200.00 142 246 1.100 10000.000 0.000 0.703
99 297.00 1200.00 113 247 1.100 10000.000 0.000 0.703
100 300.00 1200.00 135 272 1.100 10000.000 0.000 0.703
101 303.00 1200.00 103 219 1.100 10000.000 0.000 0.703
