# BinNR microsec tot-time (s)  O-Beam AUX Ampl(V) f(Hz) phase(deg) chi(pos)
0 0.00 1200.00 109 123 1.100 10000.000 0.000 0.297
1 3.00 1200.00 203 251 1.100 10000.000 0.000 0.297
2 6.00 1200.00 221 281 1.100 10000.000 0.000 0.297
3 9.00 1200.00 229 310 1.100 10000.000 0.000 0.297
4 12.00 1200.00 208 267 1.100 10000.000 0.000 0.297
5 15.00 1200.00 200 300 1.100 10000.000 0.000 0.297
6 18.00 1200.00 196 250 1.100 10000.000 0.000 0.297
7 21.00 1200.00 178 261 1.100 10000.000 0.000 0.297
8 24.00 1200.00 224 245 1.100 10000.000 0.000 0.297
9 27.00 1200.00 205 250 1.100 10000.000 0.000 0.297
10 30.00 1200.00 194 294 1.100 10000.000 0.000 0.297
11 33.00 1200.00 179 266 1.100 10000.000 0.000 0.297
12 36.00 1200.00 183 261 1.100 10000.000 0.000 0.297
13 39.00 1200.00 195 278 1.100 10000.000 0.000 0.297
14 42.00 1200.00 205 251 1.100 10000.000 0.000 0.297
15 45.00 1200.00 233 249 1.100 10000.000 0.000 0.297
16 48.00 1200.00 223 239 1.100 10000.000 0.000 0.297
17 51.00 1200.00 216 277 1.100 10000.000 0.000 0.297
18 54.00 1200.00 214 271 1.100 10000.000 0.000 0.297
19 57.00 1200.00 201 279 1.100 10000.000 0.000 0.297
20 60.00 1200.00 204 284 1.100 10000.000 0.000 0.297
21 63.00 1200.00 191 275 1.100 10000.000 0.000 0.297
22 66.00 1200.00 208 297 1.100 10000.000 0.000 0.297
23 69.00 1200.00 218 298 1.100 10000.000 0.000 0.297
24 72.00 1200.00 214 272 1.100 10000.000 0.000 0.297
25 75.00 1200.00 223 288 1.100 10000.000 0.000 0.297
26 78.00 1200.00 198 285 1.100 10000.000 0.000 0.297
27 81.00 1200.00 220 270 1.100 10000.000 0.000 0.297
28 84.00 1200.00 223 276 1.100 10000.000 0.000 0.297
29 87.00 1200.00 201 279 1.100 10000.000 0.000 0.297
30 90.00 1200.00 198 299 1.100 10000.000 0.000 0.297
31 93.00 1200.00 193 257 1.100 10000.000 0.000 0.297
32 96.00 1200.00 225 298 1.100 10000.000 0.000 0.297
33 99.00 1200.00 214 293 1.100 10000.000 0.000 0.297
34 102.00 1200.00 213 273 1.100 10000.000 0.000 0.297
35 105.00 1200.00 194 296 1.100 10000.000 0.000 0.297
36 108.00 1200.00 213 308 1.100 10000.000 0.000 0.297
37 111.00 1200.00 206 253 1.100 10000.000 0.000 0.297
38 114.00 1200.00 203 258 1.100 10000.000 0.000 0.297
39 117.00 1200.00 220 269 1.100 10000.000 0.000 0.297
40 120.00 1200.00 196 284 1.100 10000.000 0.000 0.297
41 123.00 1200.00 203 257 1.100 10000.000 0.000 0.297
42 126.00 1200.00 185 272 1.100 10000.000 0.000 0.297
43 129.00 1200.00 191 255 1.100 10000.000 0.000 0.297
44 132.00 1200.00 162 259 1.100 10000.000 0.000 0.297
45 135.00 1200.00 197 265 1.100 10000.000 0.000 0.297
46 138.00 1200.00 219 255 1.100 10000.000 0.000 0.297
47 141.00 1200.00 194 243 1.100 10000.000 0.000 0.297
48 144.00 1200.00 175 265 1.100 10000.000 0.000 0.297
49 147.00 1200.00 208 277 1.100 10000.000 0.000 0.297
50 150.00 1200.00 197 271 1.100 10000.000 0.000 0.297
51 153.00 1200.00 244 260 1.100 10000.000 0.000 0.297
52 156.00 1200.00 185 289 1.100 10000.000 0.000 0.297
53 159.00 1200.00 197 258 1.100 10000.000 0.000 0.297
54 162.00 1200.00 205 267 1.100 10000.000 0.000 0.297
55 165.00 1200.00 216 260 1.100 10000.000 0.000 0.297
56 168.00 1200.00 217 307 1.100 10000.000 0.000 0.297
57 171.00 1200.00 204 251 1.100 10000.000 0.000 0.297
58 174.00 1200.00 211 280 1.100 10000.000 0.000 0.297
59 177.00 1200.00 183 282 1.100 10000.000 0.000 0.297
60 180.00 1200.00 198 287 1.100 10000.000 0.000 0.297
61 183.00 1200.00 191 286 1.100 10000.000 0.000 0.297
62 186.00 1200.00 232 295 1.100 10000.000 0.000 0.297
63 189.00 1200.00 200 268 1.100 10000.000 0.000 0.297
64 192.00 1200.00 205 279 1.100 10000.000 0.000 0.297
65 195.00 1200.00 201 299 1.100 10000.000 0.000 0.297
66 198.00 1200.00 191 288 1.100 10000.000 0.000 0.297
67 201.00 1200.00 190 288 1.100 10000.000 0.000 0.297
68 204.00 1200.00 209 301 1.100 10000.000 0.000 0.297
69 207.00 1200.00 192 289 1.100 10000.000 0.000 0.297
70 210.00 1200.00 206 285 1.100 10000.000 0.000 0.297
71 213.00 1200.00 215 286 1.100 10000.000 0.000 0.297
72 216.00 1200.00 231 272 1.100 10000.000 0.000 0.297
73 219.00 1200.00 198 285 1.100 10000.000 0.000 0.297
74 222.00 1200.00 196 269 1.100 10000.000 0.000 0.297
75 225.00 1200.00 198 257 1.100 10000.000 0.000 0.297
76 228.00 1200.00 188 264 1.100 10000.000 0.000 0.297
77 231.00 1200.00 185 234 1.100 10000.000 0.000 0.297
78 234.00 1200.00 218 247 1.100 10000.000 0.000 0.297
79 237.00 1200.00 174 282 1.100 10000.000 0.000 0.297
80 240.00 1200.00 200 234 1.100 10000.000 0.000 0.297
81 243.00 1200.00 189 274 1.100 10000.000 0.000 0.297
82 246.00 1200.00 173 291 1.100 10000.000 0.000 0.297
83 249.00 1200.00 195 259 1.100 10000.000 0.000 0.297
84 252.00 1200.00 197 269 1.100 10000.000 0.000 0.297
85 255.00 1200.00 198 271 1.100 10000.000 0.000 0.297
86 258.00 1200.00 205 270 1.100 10000.000 0.000 0.297
87 261.00 1200.00 198 247 1.100 10000.000 0.000 0.297
88 264.00 1200.00 203 257 1.100 10000.000 0.000 0.297
89 267.00 1200.00 187 279 1.100 10000.000 0.000 0.297
90 270.00 1200.00 197 271 1.100 10000.000 0.000 0.297
91 273.00 1200.00 194 257 1.100 10000.000 0.000 0.297
92 276.00 1200.00 223 275 1.100 10000.000 0.000 0.297
93 279.00 1200.00 225 293 1.100 10000.000 0.000 0.297
94 282.00 1200.00 209 281 1.100 10000.000 0.000 0.297
95 285.00 1200.00 236 272 1.100 10000.000 0.000 0.297
96 288.00 1200.00 206 294 1.100 10000.000 0.000 0.297
97 291.00 1200.00 207 272 1.100 10000.000 0.000 0.297
98 294.00 1200.00 198 278 1.100 10000.000 0.000 0.297
99 297.00 1200.00 188 242 1.100 10000.000 0.000 0.297
100 300.00 1200.00 183 305 1.100 10000.000 0.000 0.297
101 303.00 1200.00 160 229 1.100 10000.000 0.000 0.297
