# BinNR microsec tot-time (s)  O-Beam AUX Ampl_1(V) f_1(Hz) phase_1(deg) Ampl_2(V) f_2(Hz) phase_2(deg) chi(pos)
0 0.00 1500.00 215 610 0.740 10000.000 0.000 0.610 15000.000 0.000 1.165
1 3.00 1500.00 389 1201 0.740 10000.000 0.000 0.610 15000.000 0.000 1.165
2 6.00 1500.00 415 1263 0.740 10000.000 0.000 0.610 15000.000 0.000 1.165
3 9.00 1500.00 411 1182 0.740 10000.000 0.000 0.610 15000.000 0.000 1.165
4 12.00 1500.00 406 1243 0.740 10000.000 0.000 0.610 15000.000 0.000 1.165
5 15.00 1500.00 412 1218 0.740 10000.000 0.000 0.610 15000.000 0.000 1.165
6 18.00 1500.00 439 1269 0.740 10000.000 0.000 0.610 15000.000 0.000 1.165
7 21.00 1500.00 395 1259 0.740 10000.000 0.000 0.610 15000.000 0.000 1.165
8 24.00 1500.00 404 1248 0.740 10000.000 0.000 0.610 15000.000 0.000 1.165
9 27.00 1500.00 342 1260 0.740 10000.000 0.000 0.610 15000.000 0.000 1.165
10 30.00 1500.00 304 1129 0.740 10000.000 0.000 0.610 15000.000 0.000 1.165
11 33.00 1500.00 340 1192 0.740 10000.000 0.000 0.610 15000.000 0.000 1.165
12 36.00 1500.00 341 1170 0.740 10000.000 0.000 0.610 15000.000 0.000 1.165
13 39.00 1500.00 287 1166 0.740 10000.000 0.000 0.610 15000.000 0.000 1.165
14 42.00 1500.00 344 1179 0.740 10000.000 0.000 0.610 15000.000 0.000 1.165
15 45.00 1500.00 316 1227 0.740 10000.000 0.000 0.610 15000.000 0.000 1.165
16 48.00 1500.00 348 1267 0.740 10000.000 0.000 0.610 15000.000 0.000 1.165
17 51.00 1500.00 298 1264 0.740 10000.000 0.000 0.610 15000.000 0.000 1.165
18 54.00 1500.00 324 1300 0.740 10000.000 0.000 0.610 15000.000 0.000 1.165
19 57.00 1500.00 335 1316 0.740 10000.000 0.000 0.610 15000.000 0.000 1.165
20 60.00 1500.00 365 1340 0.740 10000.000 0.000 0.610 15000.000 0.000 1.165
21 63.00 1500.00 342 1243 0.740 10000.000 0.000 0.610 15000.000 0.000 1.165
22 66.00 1500.00 331 1225 0.740 10000.000 0.000 0.610 15000.000 0.000 1.165
23 69.00 1500.00 381 1143 0.740 10000.000 0.000 0.610 15000.000 0.000 1.165
24 72.00 1500.00 414 1166 0.740 10000.000 0.000 0.610 15000.000 0.000 1.165
25 75.00 1500.00 385 1094 0.740 10000.000 0.000 0.610 15000.000 0.000 1.165
26 78.00 1500.00 428 1059 0.740 10000.000 0.000 0.610 15000.000 0.000 1.165
27 81.00 1500.00 427 1020 0.740 10000.000 0.000 0.610 15000.000 0.000 1.165
28 84.00 1500.00 433 993 0.740 10000.000 0.000 0.610 15000.000 0.000 1.165
29 87.00 1500.00 422 976 0.740 10000.000 0.000 0.610 15000.000 0.000 1.165
30 90.00 1500.00 423 1024 0.740 10000.000 0.000 0.610 15000.000 0.000 1.165
31 93.00 1500.00 478 928 0.740 10000.000 0.000 0.610 15000.000 0.000 1.165
32 96.00 1500.00 425 1073 0.740 10000.000 0.000 0.610 15000.000 0.000 1.165
33 99.00 1500.00 444 1092 0.740 10000.000 0.000 0.610 15000.000 0.000 1.165
34 102.00 1500.00 398 1108 0.740 10000.000 0.000 0.610 15000.000 0.000 1.165
35 105.00 1500.00 388 1197 0.740 10000.000 0.000 0.610 15000.000 0.000 1.165
36 108.00 1500.00 346 1233 0.740 10000.000 0.000 0.610 15000.000 0.000 1.165
37 111.00 1500.00 368 1192 0.740 10000.000 0.000 0.610 15000.000 0.000 1.165
38 114.00 1500.00 348 1272 0.740 10000.000 0.000 0.610 15000.000 0.000 1.165
39 117.00 1500.00 316 1209 0.740 10000.000 0.000 0.610 15000.000 0.000 1.165
40 120.00 1500.00 321 1303 0.740 10000.000 0.000 0.610 15000.000 0.000 1.165
41 123.00 1500.00 336 1191 0.740 10000.000 0.000 0.610 15000.000 0.000 1.165
42 126.00 1500.00 324 1306 0.740 10000.000 0.000 0.610 15000.000 0.000 1.165
43 129.00 1500.00 318 1225 0.740 10000.000 0.000 0.610 15000.000 0.000 1.165
44 132.00 1500.00 335 1215 0.740 10000.000 0.000 0.610 15000.000 0.000 1.165
45 135.00 1500.00 304 1183 0.740 10000.000 0.000 0.610 15000.000 0.000 1.165
46 138.00 1500.00 335 1215 0.740 10000.000 0.000 0.610 15000.000 0.000 1.165
47 141.00 1500.00 377 1194 0.740 10000.000 0.000 0.610 15000.000 0.000 1.165
48 144.00 1500.00 378 1140 0.740 10000.000 0.000 0.610 15000.000 0.000 1.165
49 147.00 1500.00 403 1193 0.740 10000.000 0.000 0.610 15000.000 0.000 1.165
50 150.00 1500.00 392 1207 0.740 10000.000 0.000 0.610 15000.000 0.000 1.165
51 153.00 1500.00 428 1097 0.740 10000.000 0.000 0.610 15000.000 0.000 1.165
52 156.00 1500.00 385 1196 0.740 10000.000 0.000 0.610 15000.000 0.000 1.165
53 159.00 1500.00 398 1144 0.740 10000.000 0.000 0.610 15000.000 0.000 1.165
54 162.00 1500.00 387 1252 0.740 10000.000 0.000 0.610 15000.000 0.000 1.165
55 165.00 1500.00 370 1173 0.740 10000.000 0.000 0.610 15000.000 0.000 1.165
56 168.00 1500.00 387 1258 0.740 10000.000 0.000 0.610 15000.000 0.000 1.165
57 171.00 1500.00 381 1222 0.740 10000.000 0.000 0.610 15000.000 0.000 1.165
58 174.00 1500.00 374 1234 0.740 10000.000 0.000 0.610 15000.000 0.000 1.165
59 177.00 1500.00 390 1176 0.740 10000.000 0.000 0.610 15000.000 0.000 1.165
60 180.00 1500.00 377 1213 0.740 10000.000 0.000 0.610 15000.000 0.000 1.165
61 183.00 1500.00 409 1200 0.740 10000.000 0.000 0.610 15000.000 0.000 1.165
62 186.00 1500.00 354 1208 0.740 10000.000 0.000 0.610 15000.000 0.000 1.165
63 189.00 1500.00 397 1120 0.740 10000.000 0.000 0.610 15000.000 0.000 1.165
64 192.00 1500.00 386 1122 0.740 10000.000 0.000 0.610 15000.000 0.000 1.165
65 195.00 1500.00 405 1079 0.740 10000.000 0.000 0.610 15000.000 0.000 1.165
66 198.00 1500.00 406 1107 0.740 10000.000 0.000 0.610 15000.000 0.000 1.165
67 201.00 1500.00 455 1021 0.740 10000.000 0.000 0.610 15000.000 0.000 1.165
68 204.00 1500.00 437 933 0.740 10000.000 0.000 0.610 15000.000 0.000 1.165
69 207.00 1500.00 418 924 0.740 10000.000 0.000 0.610 15000.000 0.000 1.165
70 210.00 1500.00 427 1015 0.740 10000.000 0.000 0.610 15000.000 0.000 1.165
71 213.00 1500.00 458 943 0.740 10000.000 0.000 0.610 15000.000 0.000 1.165
72 216.00 1500.00 414 1020 0.740 10000.000 0.000 0.610 15000.000 0.000 1.165
73 219.00 1500.00 367 1020 0.740 10000.000 0.000 0.610 15000.000 0.000 1.165
74 222.00 1500.00 371 1187 0.740 10000.000 0.000 0.610 15000.000 0.000 1.165
75 225.00 1500.00 351 1167 0.740 10000.000 0.000 0.610 15000.000 0.000 1.165
76 228.00 1500.00 377 1257 0.740 10000.000 0.000 0.610 15000.000 0.000 1.165
77 231.00 1500.00 348 1177 0.740 10000.000 0.000 0.610 15000.000 0.000 1.165
78 234.00 1500.00 351 1261 0.740 10000.000 0.000 0.610 15000.000 0.000 1.165
79 237.00 1500.00 346 1239 0.740 10000.000 0.000 0.610 15000.000 0.000 1.165
80 240.00 1500.00 319 1311 0.740 10000.000 0.000 0.610 15000.000 0.000 1.165
81 243.00 1500.00 344 1204 0.740 10000.000 0.000 0.610 15000.000 0.000 1.165
82 246.00 1500.00 309 1250 0.740 10000.000 0.000 0.610 15000.000 0.000 1.165
83 249.00 1500.00 337 1260 0.740 10000.000 0.000 0.610 15000.000 0.000 1.165
84 252.00 1500.00 331 1308 0.740 10000.000 0.000 0.610 15000.000 0.000 1.165
85 255.00 1500.00 327 1244 0.740 10000.000 0.000 0.610 15000.000 0.000 1.165
86 258.00 1500.00 340 1265 0.740 10000.000 0.000 0.610 15000.000 0.000 1.165
87 261.00 1500.00 354 1255 0.740 10000.000 0.000 0.610 15000.000 0.000 1.165
88 264.00 1500.00 427 1208 0.740 10000.000 0.000 0.610 15000.000 0.000 1.165
89 267.00 1500.00 367 1204 0.740 10000.000 0.000 0.610 15000.000 0.000 1.165
90 270.00 1500.00 419 1158 0.740 10000.000 0.000 0.610 15000.000 0.000 1.165
91 273.00 1500.00 445 1012 0.740 10000.000 0.000 0.610 15000.000 0.000 1.165
92 276.00 1500.00 414 1051 0.740 10000.000 0.000 0.610 15000.000 0.000 1.165
93 279.00 1500.00 442 1043 0.740 10000.000 0.000 0.610 15000.000 0.000 1.165
94 282.00 1500.00 431 1028 0.740 10000.000 0.000 0.610 15000.000 0.000 1.165
95 285.00 1500.00 425 989 0.740 10000.000 0.000 0.610 15000.000 0.000 1.165
96 288.00 1500.00 395 918 0.740 10000.000 0.000 0.610 15000.000 0.000 1.165
97 291.00 1500.00 404 980 0.740 10000.000 0.000 0.610 15000.000 0.000 1.165
98 294.00 1500.00 438 1019 0.740 10000.000 0.000 0.610 15000.000 0.000 1.165
99 297.00 1500.00 427 1045 0.740 10000.000 0.000 0.610 15000.000 0.000 1.165
100 300.00 1500.00 392 1088 0.740 10000.000 0.000 0.610 15000.000 0.000 1.165
101 303.00 1500.00 355 1117 0.740 10000.000 0.000 0.610 15000.000 0.000 1.165
102 306.00 1500.00 387 1149 0.740 10000.000 0.000 0.610 15000.000 0.000 1.165
103 309.00 1500.00 397 1172 0.740 10000.000 0.000 0.610 15000.000 0.000 1.165
104 312.00 1500.00 368 1198 0.740 10000.000 0.000 0.610 15000.000 0.000 1.165
105 315.00 1500.00 400 1194 0.740 10000.000 0.000 0.610 15000.000 0.000 1.165
106 318.00 1500.00 430 1221 0.740 10000.000 0.000 0.610 15000.000 0.000 1.165
107 321.00 1500.00 382 1252 0.740 10000.000 0.000 0.610 15000.000 0.000 1.165
108 324.00 1500.00 423 1277 0.740 10000.000 0.000 0.610 15000.000 0.000 1.165
109 327.00 1500.00 421 1210 0.740 10000.000 0.000 0.610 15000.000 0.000 1.165
110 330.00 1500.00 407 1234 0.740 10000.000 0.000 0.610 15000.000 0.000 1.165
111 333.00 1500.00 413 1202 0.740 10000.000 0.000 0.610 15000.000 0.000 1.165
112 336.00 1500.00 395 1156 0.740 10000.000 0.000 0.610 15000.000 0.000 1.165
113 339.00 1500.00 382 1143 0.740 10000.000 0.000 0.610 15000.000 0.000 1.165
114 342.00 1500.00 359 1173 0.740 10000.000 0.000 0.610 15000.000 0.000 1.165
115 345.00 1500.00 346 1152 0.740 10000.000 0.000 0.610 15000.000 0.000 1.165
116 348.00 1500.00 341 1226 0.740 10000.000 0.000 0.610 15000.000 0.000 1.165
117 351.00 1500.00 335 1165 0.740 10000.000 0.000 0.610 15000.000 0.000 1.165
118 354.00 1500.00 299 1147 0.740 10000.000 0.000 0.610 15000.000 0.000 1.165
119 357.00 1500.00 267 1178 0.740 10000.000 0.000 0.610 15000.000 0.000 1.165
120 360.00 1500.00 304 1267 0.740 10000.000 0.000 0.610 15000.000 0.000 1.165
121 363.00 1500.00 319 1217 0.740 10000.000 0.000 0.610 15000.000 0.000 1.165
122 366.00 1500.00 355 1240 0.740 10000.000 0.000 0.610 15000.000 0.000 1.165
123 369.00 1500.00 313 1210 0.740 10000.000 0.000 0.610 15000.000 0.000 1.165
124 372.00 1500.00 364 1300 0.740 10000.000 0.000 0.610 15000.000 0.000 1.165
125 375.00 1500.00 350 1224 0.740 10000.000 0.000 0.610 15000.000 0.000 1.165
126 378.00 1500.00 419 1230 0.740 10000.000 0.000 0.610 15000.000 0.000 1.165
127 381.00 1500.00 332 1248 0.740 10000.000 0.000 0.610 15000.000 0.000 1.165
128 384.00 1500.00 422 1171 0.740 10000.000 0.000 0.610 15000.000 0.000 1.165
129 387.00 1500.00 379 1164 0.740 10000.000 0.000 0.610 15000.000 0.000 1.165
130 390.00 1500.00 397 1114 0.740 10000.000 0.000 0.610 15000.000 0.000 1.165
131 393.00 1500.00 384 1132 0.740 10000.000 0.000 0.610 15000.000 0.000 1.165
132 396.00 1500.00 416 1096 0.740 10000.000 0.000 0.610 15000.000 0.000 1.165
133 399.00 1500.00 439 1020 0.740 10000.000 0.000 0.610 15000.000 0.000 1.165
134 402.00 1500.00 429 1036 0.740 10000.000 0.000 0.610 15000.000 0.000 1.165
135 405.00 1500.00 434 921 0.740 10000.000 0.000 0.610 15000.000 0.000 1.165
136 408.00 1500.00 415 987 0.740 10000.000 0.000 0.610 15000.000 0.000 1.165
137 411.00 1500.00 403 965 0.740 10000.000 0.000 0.610 15000.000 0.000 1.165
138 414.00 1500.00 390 915 0.740 10000.000 0.000 0.610 15000.000 0.000 1.165
139 417.00 1500.00 355 994 0.740 10000.000 0.000 0.610 15000.000 0.000 1.165
140 420.00 1500.00 404 1012 0.740 10000.000 0.000 0.610 15000.000 0.000 1.165
141 423.00 1500.00 346 1090 0.740 10000.000 0.000 0.610 15000.000 0.000 1.165
142 426.00 1500.00 407 1187 0.740 10000.000 0.000 0.610 15000.000 0.000 1.165
143 429.00 1500.00 410 1284 0.740 10000.000 0.000 0.610 15000.000 0.000 1.165
144 432.00 1500.00 415 1254 0.740 10000.000 0.000 0.610 15000.000 0.000 1.165
