# BinNR microsec tot-time (s)  O-Beam AUX Ampl(V) f(Hz) phase(deg) chi(pos)
0 0.00 1500.00 161 258 1.000 10000.000 0.000 0.165
1 3.00 1500.00 295 493 1.000 10000.000 0.000 0.165
2 6.00 1500.00 277 474 1.000 10000.000 0.000 0.165
3 9.00 1500.00 276 536 1.000 10000.000 0.000 0.165
4 12.00 1500.00 321 567 1.000 10000.000 0.000 0.165
5 15.00 1500.00 298 588 1.000 10000.000 0.000 0.165
6 18.00 1500.00 334 629 1.000 10000.000 0.000 0.165
7 21.00 1500.00 334 665 1.000 10000.000 0.000 0.165
8 24.00 1500.00 336 660 1.000 10000.000 0.000 0.165
9 27.00 1500.00 341 715 1.000 10000.000 0.000 0.165
10 30.00 1500.00 370 746 1.000 10000.000 0.000 0.165
11 33.00 1500.00 389 759 1.000 10000.000 0.000 0.165
12 36.00 1500.00 396 772 1.000 10000.000 0.000 0.165
13 39.00 1500.00 409 721 1.000 10000.000 0.000 0.165
14 42.00 1500.00 367 720 1.000 10000.000 0.000 0.165
15 45.00 1500.00 352 764 1.000 10000.000 0.000 0.165
16 48.00 1500.00 370 756 1.000 10000.000 0.000 0.165
17 51.00 1500.00 391 697 1.000 10000.000 0.000 0.165
18 54.00 1500.00 355 738 1.000 10000.000 0.000 0.165
19 57.00 1500.00 368 676 1.000 10000.000 0.000 0.165
20 60.00 1500.00 347 748 1.000 10000.000 0.000 0.165
21 63.00 1500.00 380 691 1.000 10000.000 0.000 0.165
22 66.00 1500.00 365 715 1.000 10000.000 0.000 0.165
23 69.00 1500.00 333 644 1.000 10000.000 0.000 0.165
24 72.00 1500.00 335 617 1.000 10000.000 0.000 0.165
25 75.00 1500.00 311 610 1.000 10000.000 0.000 0.165
26 78.00 1500.00 283 556 1.000 10000.000 0.000 0.165
27 81.00 1500.00 316 514 1.000 10000.000 0.000 0.165
28 84.00 1500.00 292 513 1.000 10000.000 0.000 0.165
29 87.00 1500.00 297 448 1.000 10000.000 0.000 0.165
30 90.00 1500.00 299 451 1.000 10000.000 0.000 0.165
31 93.00 1500.00 302 454 1.000 10000.000 0.000 0.165
32 96.00 1500.00 267 438 1.000 10000.000 0.000 0.165
33 99.00 1500.00 272 449 1.000 10000.000 0.000 0.165
34 102.00 1500.00 302 432 1.000 10000.000 0.000 0.165
35 105.00 1500.00 337 427 1.000 10000.000 0.000 0.165
36 108.00 1500.00 279 525 1.000 10000.000 0.000 0.165
37 111.00 1500.00 315 522 1.000 10000.000 0.000 0.165
38 114.00 1500.00 290 539 1.000 10000.000 0.000 0.165
39 117.00 1500.00 359 581 1.000 10000.000 0.000 0.165
40 120.00 1500.00 333 568 1.000 10000.000 0.000 0.165
41 123.00 1500.00 358 684 1.000 10000.000 0.000 0.165
42 126.00 1500.00 339 643 1.000 10000.000 0.000 0.165
43 129.00 1500.00 342 679 1.000 10000.000 0.000 0.165
44 132.00 1500.00 344 688 1.000 10000.000 0.000 0.165
45 135.00 1500.00 390 672 1.000 10000.000 0.000 0.165
46 138.00 1500.00 385 736 1.000 10000.000 0.000 0.165
47 141.00 1500.00 348 753 1.000 10000.000 0.000 0.165
48 144.00 1500.00 403 838 1.000 10000.000 0.000 0.165
49 147.00 1500.00 380 778 1.000 10000.000 0.000 0.165
50 150.00 1500.00 371 730 1.000 10000.000 0.000 0.165
51 153.00 1500.00 365 806 1.000 10000.000 0.000 0.165
52 156.00 1500.00 341 818 1.000 10000.000 0.000 0.165
53 159.00 1500.00 358 778 1.000 10000.000 0.000 0.165
54 162.00 1500.00 338 693 1.000 10000.000 0.000 0.165
55 165.00 1500.00 355 670 1.000 10000.000 0.000 0.165
56 168.00 1500.00 359 674 1.000 10000.000 0.000 0.165
57 171.00 1500.00 319 603 1.000 10000.000 0.000 0.165
58 174.00 1500.00 310 627 1.000 10000.000 0.000 0.165
59 177.00 1500.00 285 589 1.000 10000.000 0.000 0.165
60 180.00 1500.00 324 575 1.000 10000.000 0.000 0.165
61 183.00 1500.00 311 513 1.000 10000.000 0.000 0.165
62 186.00 1500.00 321 512 1.000 10000.000 0.000 0.165
63 189.00 1500.00 289 441 1.000 10000.000 0.000 0.165
64 192.00 1500.00 294 468 1.000 10000.000 0.000 0.165
65 195.00 1500.00 298 438 1.000 10000.000 0.000 0.165
66 198.00 1500.00 275 475 1.000 10000.000 0.000 0.165
67 201.00 1500.00 302 496 1.000 10000.000 0.000 0.165
68 204.00 1500.00 291 489 1.000 10000.000 0.000 0.165
69 207.00 1500.00 321 501 1.000 10000.000 0.000 0.165
70 210.00 1500.00 307 506 1.000 10000.000 0.000 0.165
71 213.00 1500.00 328 538 1.000 10000.000 0.000 0.165
72 216.00 1500.00 302 569 1.000 10000.000 0.000 0.165
73 219.00 1500.00 322 512 1.000 10000.000 0.000 0.165
74 222.00 1500.00 337 646 1.000 10000.000 0.000 0.165
75 225.00 1500.00 315 649 1.000 10000.000 0.000 0.165
76 228.00 1500.00 385 715 1.000 10000.000 0.000 0.165
77 231.00 1500.00 416 663 1.000 10000.000 0.000 0.165
78 234.00 1500.00 360 730 1.000 10000.000 0.000 0.165
79 237.00 1500.00 373 792 1.000 10000.000 0.000 0.165
80 240.00 1500.00 365 783 1.000 10000.000 0.000 0.165
81 243.00 1500.00 355 760 1.000 10000.000 0.000 0.165
82 246.00 1500.00 357 779 1.000 10000.000 0.000 0.165
83 249.00 1500.00 350 783 1.000 10000.000 0.000 0.165
84 252.00 1500.00 368 758 1.000 10000.000 0.000 0.165
85 255.00 1500.00 366 753 1.000 10000.000 0.000 0.165
86 258.00 1500.00 369 772 1.000 10000.000 0.000 0.165
87 261.00 1500.00 341 760 1.000 10000.000 0.000 0.165
88 264.00 1500.00 352 705 1.000 10000.000 0.000 0.165
89 267.00 1500.00 366 668 1.000 10000.000 0.000 0.165
90 270.00 1500.00 353 641 1.000 10000.000 0.000 0.165
91 273.00 1500.00 344 666 1.000 10000.000 0.000 0.165
92 276.00 1500.00 347 613 1.000 10000.000 0.000 0.165
93 279.00 1500.00 296 540 1.000 10000.000 0.000 0.165
94 282.00 1500.00 305 525 1.000 10000.000 0.000 0.165
95 285.00 1500.00 347 492 1.000 10000.000 0.000 0.165
96 288.00 1500.00 303 527 1.000 10000.000 0.000 0.165
97 291.00 1500.00 260 446 1.000 10000.000 0.000 0.165
98 294.00 1500.00 295 510 1.000 10000.000 0.000 0.165
99 297.00 1500.00 313 431 1.000 10000.000 0.000 0.165
100 300.00 1500.00 307 458 1.000 10000.000 0.000 0.165
101 303.00 1500.00 281 465 1.000 10000.000 0.000 0.165
102 306.00 1500.00 310 501 1.000 10000.000 0.000 0.165
103 309.00 1500.00 313 477 1.000 10000.000 0.000 0.165
104 312.00 1500.00 312 536 1.000 10000.000 0.000 0.165
105 315.00 1500.00 336 556 1.000 10000.000 0.000 0.165
106 318.00 1500.00 333 583 1.000 10000.000 0.000 0.165
107 321.00 1500.00 329 613 1.000 10000.000 0.000 0.165
108 324.00 1500.00 352 619 1.000 10000.000 0.000 0.165
109 327.00 1500.00 356 627 1.000 10000.000 0.000 0.165
110 330.00 1500.00 359 686 1.000 10000.000 0.000 0.165
111 333.00 1500.00 366 752 1.000 10000.000 0.000 0.165
112 336.00 1500.00 346 691 1.000 10000.000 0.000 0.165
113 339.00 1500.00 391 743 1.000 10000.000 0.000 0.165
114 342.00 1500.00 373 814 1.000 10000.000 0.000 0.165
115 345.00 1500.00 360 806 1.000 10000.000 0.000 0.165
116 348.00 1500.00 347 772 1.000 10000.000 0.000 0.165
117 351.00 1500.00 392 722 1.000 10000.000 0.000 0.165
118 354.00 1500.00 349 736 1.000 10000.000 0.000 0.165
119 357.00 1500.00 351 778 1.000 10000.000 0.000 0.165
120 360.00 1500.00 327 734 1.000 10000.000 0.000 0.165
121 363.00 1500.00 374 729 1.000 10000.000 0.000 0.165
122 366.00 1500.00 379 701 1.000 10000.000 0.000 0.165
123 369.00 1500.00 358 609 1.000 10000.000 0.000 0.165
124 372.00 1500.00 325 610 1.000 10000.000 0.000 0.165
125 375.00 1500.00 331 608 1.000 10000.000 0.000 0.165
126 378.00 1500.00 304 544 1.000 10000.000 0.000 0.165
127 381.00 1500.00 318 565 1.000 10000.000 0.000 0.165
128 384.00 1500.00 327 523 1.000 10000.000 0.000 0.165
129 387.00 1500.00 287 491 1.000 10000.000 0.000 0.165
130 390.00 1500.00 290 472 1.000 10000.000 0.000 0.165
131 393.00 1500.00 280 466 1.000 10000.000 0.000 0.165
132 396.00 1500.00 297 445 1.000 10000.000 0.000 0.165
133 399.00 1500.00 304 462 1.000 10000.000 0.000 0.165
134 402.00 1500.00 316 494 1.000 10000.000 0.000 0.165
