# BinNR microsec tot-time (s)  O-Beam AUX Ampl(V) f(Hz) phase(deg) chi(pos)
0 0.00 1500.01 157 465 1.000 10000.000 0.000 1.329
1 3.00 1500.01 299 858 1.000 10000.000 0.000 1.329
2 6.00 1500.01 284 882 1.000 10000.000 0.000 1.329
3 9.00 1500.01 276 858 1.000 10000.000 0.000 1.329
4 12.00 1500.01 299 845 1.000 10000.000 0.000 1.329
5 15.00 1500.01 265 834 1.000 10000.000 0.000 1.329
6 18.00 1500.01 243 800 1.000 10000.000 0.000 1.329
7 21.00 1500.01 257 741 1.000 10000.000 0.000 1.329
8 24.00 1500.01 232 877 1.000 10000.000 0.000 1.329
9 27.00 1500.01 248 746 1.000 10000.000 0.000 1.329
10 30.00 1500.01 244 651 1.000 10000.000 0.000 1.329
11 33.00 1500.01 227 632 1.000 10000.000 0.000 1.329
12 36.00 1500.01 241 668 1.000 10000.000 0.000 1.329
13 39.00 1500.01 225 686 1.000 10000.000 0.000 1.329
14 42.00 1500.01 214 696 1.000 10000.000 0.000 1.329
15 45.00 1500.01 207 650 1.000 10000.000 0.000 1.329
16 48.00 1500.01 203 691 1.000 10000.000 0.000 1.329
17 51.00 1500.01 210 725 1.000 10000.000 0.000 1.329
18 54.00 1500.01 197 693 1.000 10000.000 0.000 1.329
19 57.00 1500.01 220 713 1.000 10000.000 0.000 1.329
20 60.00 1500.01 231 676 1.000 10000.000 0.000 1.329
21 63.00 1500.01 235 737 1.000 10000.000 0.000 1.329
22 66.00 1500.01 241 678 1.000 10000.000 0.000 1.329
23 69.00 1500.01 259 791 1.000 10000.000 0.000 1.329
24 72.00 1500.01 281 849 1.000 10000.000 0.000 1.329
25 75.00 1500.01 262 791 1.000 10000.000 0.000 1.329
26 78.00 1500.01 273 831 1.000 10000.000 0.000 1.329
27 81.00 1500.01 282 857 1.000 10000.000 0.000 1.329
28 84.00 1500.01 279 896 1.000 10000.000 0.000 1.329
29 87.00 1500.01 315 876 1.000 10000.000 0.000 1.329
30 90.00 1500.01 320 917 1.000 10000.000 0.000 1.329
31 93.00 1500.01 276 920 1.000 10000.000 0.000 1.329
32 96.00 1500.01 318 921 1.000 10000.000 0.000 1.329
33 99.00 1500.01 314 932 1.000 10000.000 0.000 1.329
34 102.00 1500.01 293 950 1.000 10000.000 0.000 1.329
35 105.00 1500.01 290 903 1.000 10000.000 0.000 1.329
36 108.00 1500.01 304 918 1.000 10000.000 0.000 1.329
37 111.00 1500.01 294 932 1.000 10000.000 0.000 1.329
38 114.00 1500.01 319 871 1.000 10000.000 0.000 1.329
39 117.00 1500.01 282 827 1.000 10000.000 0.000 1.329
40 120.00 1500.01 284 813 1.000 10000.000 0.000 1.329
41 123.00 1500.01 277 780 1.000 10000.000 0.000 1.329
42 126.00 1500.01 245 767 1.000 10000.000 0.000 1.329
43 129.00 1500.01 215 732 1.000 10000.000 0.000 1.329
44 132.00 1500.01 217 717 1.000 10000.000 0.000 1.329
45 135.00 1500.01 252 665 1.000 10000.000 0.000 1.329
46 138.00 1500.01 188 692 1.000 10000.000 0.000 1.329
47 141.00 1500.01 238 617 1.000 10000.000 0.000 1.329
48 144.00 1500.01 205 657 1.000 10000.000 0.000 1.329
49 147.00 1500.01 211 620 1.000 10000.000 0.000 1.329
50 150.00 1500.01 221 651 1.000 10000.000 0.000 1.329
51 153.00 1500.01 204 643 1.000 10000.000 0.000 1.329
52 156.00 1500.01 247 647 1.000 10000.000 0.000 1.329
53 159.00 1500.01 239 672 1.000 10000.000 0.000 1.329
54 162.00 1500.01 238 713 1.000 10000.000 0.000 1.329
55 165.00 1500.01 279 709 1.000 10000.000 0.000 1.329
56 168.00 1500.01 244 765 1.000 10000.000 0.000 1.329
57 171.00 1500.01 289 773 1.000 10000.000 0.000 1.329
58 174.00 1500.01 284 807 1.000 10000.000 0.000 1.329
59 177.00 1500.01 260 833 1.000 10000.000 0.000 1.329
60 180.00 1500.01 268 908 1.000 10000.000 0.000 1.329
61 183.00 1500.01 277 829 1.000 10000.000 0.000 1.329
62 186.00 1500.01 290 936 1.000 10000.000 0.000 1.329
63 189.00 1500.01 317 930 1.000 10000.000 0.000 1.329
64 192.00 1500.01 317 907 1.000 10000.000 0.000 1.329
65 195.00 1500.01 282 957 1.000 10000.000 0.000 1.329
66 198.00 1500.01 291 918 1.000 10000.000 0.000 1.329
67 201.00 1500.01 280 984 1.000 10000.000 0.000 1.329
68 204.00 1500.01 294 904 1.000 10000.000 0.000 1.329
69 207.00 1500.01 320 903 1.000 10000.000 0.000 1.329
70 210.00 1500.01 305 906 1.000 10000.000 0.000 1.329
71 213.00 1500.01 274 866 1.000 10000.000 0.000 1.329
72 216.00 1500.01 236 850 1.000 10000.000 0.000 1.329
73 219.00 1500.01 234 797 1.000 10000.000 0.000 1.329
74 222.00 1500.01 262 791 1.000 10000.000 0.000 1.329
75 225.00 1500.01 245 799 1.000 10000.000 0.000 1.329
76 228.00 1500.01 268 753 1.000 10000.000 0.000 1.329
77 231.00 1500.01 234 761 1.000 10000.000 0.000 1.329
78 234.00 1500.01 237 705 1.000 10000.000 0.000 1.329
79 237.00 1500.01 238 674 1.000 10000.000 0.000 1.329
80 240.00 1500.01 204 700 1.000 10000.000 0.000 1.329
81 243.00 1500.01 228 606 1.000 10000.000 0.000 1.329
82 246.00 1500.01 232 675 1.000 10000.000 0.000 1.329
83 249.00 1500.01 231 634 1.000 10000.000 0.000 1.329
84 252.00 1500.01 210 629 1.000 10000.000 0.000 1.329
85 255.00 1500.01 194 656 1.000 10000.000 0.000 1.329
86 258.00 1500.01 252 722 1.000 10000.000 0.000 1.329
87 261.00 1500.01 221 689 1.000 10000.000 0.000 1.329
88 264.00 1500.01 248 703 1.000 10000.000 0.000 1.329
89 267.00 1500.01 264 769 1.000 10000.000 0.000 1.329
90 270.00 1500.01 239 770 1.000 10000.000 0.000 1.329
91 273.00 1500.01 285 724 1.000 10000.000 0.000 1.329
92 276.00 1500.01 276 833 1.000 10000.000 0.000 1.329
93 279.00 1500.01 240 866 1.000 10000.000 0.000 1.329
94 282.00 1500.01 274 924 1.000 10000.000 0.000 1.329
95 285.00 1500.01 289 873 1.000 10000.000 0.000 1.329
96 288.00 1500.01 305 944 1.000 10000.000 0.000 1.329
97 291.00 1500.01 302 969 1.000 10000.000 0.000 1.329
98 294.00 1500.01 316 914 1.000 10000.000 0.000 1.329
99 297.00 1500.01 329 900 1.000 10000.000 0.000 1.329
100 300.00 1500.01 320 933 1.000 10000.000 0.000 1.329
101 303.00 1500.01 290 875 1.000 10000.000 0.000 1.329
102 306.00 1500.01 334 940 1.000 10000.000 0.000 1.329
103 309.00 1500.01 286 859 1.000 10000.000 0.000 1.329
104 312.00 1500.01 278 909 1.000 10000.000 0.000 1.329
105 315.00 1500.01 267 829 1.000 10000.000 0.000 1.329
106 318.00 1500.01 257 798 1.000 10000.000 0.000 1.329
107 321.00 1500.01 260 763 1.000 10000.000 0.000 1.329
108 324.00 1500.01 245 793 1.000 10000.000 0.000 1.329
109 327.00 1500.01 245 741 1.000 10000.000 0.000 1.329
110 330.00 1500.01 236 724 1.000 10000.000 0.000 1.329
111 333.00 1500.01 233 703 1.000 10000.000 0.000 1.329
112 336.00 1500.01 210 643 1.000 10000.000 0.000 1.329
113 339.00 1500.01 206 581 1.000 10000.000 0.000 1.329
114 342.00 1500.01 232 645 1.000 10000.000 0.000 1.329
115 345.00 1500.01 211 662 1.000 10000.000 0.000 1.329
116 348.00 1500.01 219 652 1.000 10000.000 0.000 1.329
117 351.00 1500.01 203 678 1.000 10000.000 0.000 1.329
118 354.00 1500.01 190 686 1.000 10000.000 0.000 1.329
119 357.00 1500.01 246 669 1.000 10000.000 0.000 1.329
120 360.00 1500.01 248 707 1.000 10000.000 0.000 1.329
121 363.00 1500.01 218 737 1.000 10000.000 0.000 1.329
122 366.00 1500.01 239 731 1.000 10000.000 0.000 1.329
123 369.00 1500.01 253 761 1.000 10000.000 0.000 1.329
124 372.00 1500.01 252 745 1.000 10000.000 0.000 1.329
125 375.00 1500.01 268 822 1.000 10000.000 0.000 1.329
126 378.00 1500.01 240 782 1.000 10000.000 0.000 1.329
127 381.00 1500.01 277 834 1.000 10000.000 0.000 1.329
128 384.00 1500.01 281 910 1.000 10000.000 0.000 1.329
129 387.00 1500.01 276 887 1.000 10000.000 0.000 1.329
130 390.00 1500.01 302 878 1.000 10000.000 0.000 1.329
131 393.00 1500.01 288 889 1.000 10000.000 0.000 1.329
132 396.00 1500.01 291 921 1.000 10000.000 0.000 1.329
133 399.00 1500.01 362 882 1.000 10000.000 0.000 1.329
134 402.00 1500.01 318 969 1.000 10000.000 0.000 1.329
