# BinNR microsec tot-time (s)  O-Beam AUX Ampl(V) f(Hz) phase(deg) chi(pos)
0 0.00 1200.03 204 598 2.000 10000.000 0.000 -0.901
1 3.00 1200.03 415 1266 2.000 10000.000 0.000 -0.901
2 6.00 1200.03 437 1326 2.000 10000.000 0.000 -0.901
3 9.00 1200.03 412 1278 2.000 10000.000 0.000 -0.901
4 12.00 1200.03 448 1391 2.000 10000.000 0.000 -0.901
5 15.00 1200.03 404 1309 2.000 10000.000 0.000 -0.901
6 18.00 1200.03 456 1328 2.000 10000.000 0.000 -0.901
7 21.00 1200.03 438 1380 2.000 10000.000 0.000 -0.901
8 24.00 1200.03 397 1321 2.000 10000.000 0.000 -0.901
9 27.00 1200.03 411 1226 2.000 10000.000 0.000 -0.901
10 30.00 1200.03 428 1220 2.000 10000.000 0.000 -0.901
11 33.00 1200.03 414 1127 2.000 10000.000 0.000 -0.901
12 36.00 1200.03 424 1155 2.000 10000.000 0.000 -0.901
13 39.00 1200.03 384 1066 2.000 10000.000 0.000 -0.901
14 42.00 1200.03 418 1087 2.000 10000.000 0.000 -0.901
15 45.00 1200.03 397 1083 2.000 10000.000 0.000 -0.901
16 48.00 1200.03 444 1108 2.000 10000.000 0.000 -0.901
17 51.00 1200.03 415 1047 2.000 10000.000 0.000 -0.901
18 54.00 1200.03 425 1107 2.000 10000.000 0.000 -0.901
19 57.00 1200.03 409 1082 2.000 10000.000 0.000 -0.901
20 60.00 1200.03 434 1133 2.000 10000.000 0.000 -0.901
21 63.00 1200.03 454 1142 2.000 10000.000 0.000 -0.901
22 66.00 1200.03 428 1220 2.000 10000.000 0.000 -0.901
23 69.00 1200.03 497 1231 2.000 10000.000 0.000 -0.901
24 72.00 1200.03 475 1313 2.000 10000.000 0.000 -0.901
25 75.00 1200.03 450 1264 2.000 10000.000 0.000 -0.901
26 78.00 1200.03 464 1359 2.000 10000.000 0.000 -0.901
27 81.00 1200.03 476 1360 2.000 10000.000 0.000 -0.901
28 84.00 1200.03 426 1358 2.000 10000.000 0.000 -0.901
29 87.00 1200.03 413 1276 2.000 10000.000 0.000 -0.901
30 90.00 1200.03 396 1316 2.000 10000.000 0.000 -0.901
31 93.00 1200.03 429 1260 2.000 10000.000 0.000 -0.901
32 96.00 1200.03 392 1212 2.000 10000.000 0.000 -0.901
33 99.00 1200.03 445 1233 2.000 10000.000 0.000 -0.901
34 102.00 1200.03 426 1236 2.000 10000.000 0.000 -0.901
35 105.00 1200.03 438 1256 2.000 10000.000 0.000 -0.901
36 108.00 1200.03 437 1281 2.000 10000.000 0.000 -0.901
37 111.00 1200.03 444 1304 2.000 10000.000 0.000 -0.901
38 114.00 1200.03 460 1427 2.000 10000.000 0.000 -0.901
39 117.00 1200.03 450 1332 2.000 10000.000 0.000 -0.901
40 120.00 1200.03 425 1355 2.000 10000.000 0.000 -0.901
41 123.00 1200.03 432 1316 2.000 10000.000 0.000 -0.901
42 126.00 1200.03 441 1330 2.000 10000.000 0.000 -0.901
43 129.00 1200.03 430 1265 2.000 10000.000 0.000 -0.901
44 132.00 1200.03 431 1259 2.000 10000.000 0.000 -0.901
45 135.00 1200.03 400 1108 2.000 10000.000 0.000 -0.901
46 138.00 1200.03 404 1140 2.000 10000.000 0.000 -0.901
47 141.00 1200.03 396 1006 2.000 10000.000 0.000 -0.901
48 144.00 1200.03 425 1079 2.000 10000.000 0.000 -0.901
49 147.00 1200.03 373 998 2.000 10000.000 0.000 -0.901
50 150.00 1200.03 468 930 2.000 10000.000 0.000 -0.901
51 153.00 1200.03 411 934 2.000 10000.000 0.000 -0.901
52 156.00 1200.03 426 980 2.000 10000.000 0.000 -0.901
53 159.00 1200.03 417 1009 2.000 10000.000 0.000 -0.901
54 162.00 1200.03 443 1105 2.000 10000.000 0.000 -0.901
55 165.00 1200.03 440 1140 2.000 10000.000 0.000 -0.901
56 168.00 1200.03 470 1320 2.000 10000.000 0.000 -0.901
57 171.00 1200.03 461 1295 2.000 10000.000 0.000 -0.901
58 174.00 1200.03 481 1378 2.000 10000.000 0.000 -0.901
59 177.00 1200.03 473 1293 2.000 10000.000 0.000 -0.901
60 180.00 1200.03 484 1332 2.000 10000.000 0.000 -0.901
61 183.00 1200.03 435 1310 2.000 10000.000 0.000 -0.901
62 186.00 1200.03 422 1272 2.000 10000.000 0.000 -0.901
63 189.00 1200.03 442 1257 2.000 10000.000 0.000 -0.901
64 192.00 1200.03 386 1324 2.000 10000.000 0.000 -0.901
65 195.00 1200.03 437 1214 2.000 10000.000 0.000 -0.901
66 198.00 1200.03 413 1262 2.000 10000.000 0.000 -0.901
67 201.00 1200.03 403 1159 2.000 10000.000 0.000 -0.901
68 204.00 1200.03 466 1222 2.000 10000.000 0.000 -0.901
69 207.00 1200.03 431 1268 2.000 10000.000 0.000 -0.901
70 210.00 1200.03 403 1246 2.000 10000.000 0.000 -0.901
71 213.00 1200.03 428 1323 2.000 10000.000 0.000 -0.901
72 216.00 1200.03 458 1401 2.000 10000.000 0.000 -0.901
73 219.00 1200.03 408 1338 2.000 10000.000 0.000 -0.901
74 222.00 1200.03 465 1341 2.000 10000.000 0.000 -0.901
75 225.00 1200.03 446 1285 2.000 10000.000 0.000 -0.901
76 228.00 1200.03 437 1261 2.000 10000.000 0.000 -0.901
77 231.00 1200.03 415 1236 2.000 10000.000 0.000 -0.901
78 234.00 1200.03 418 1174 2.000 10000.000 0.000 -0.901
79 237.00 1200.03 388 1144 2.000 10000.000 0.000 -0.901
80 240.00 1200.03 388 1111 2.000 10000.000 0.000 -0.901
81 243.00 1200.03 424 1014 2.000 10000.000 0.000 -0.901
82 246.00 1200.03 395 1009 2.000 10000.000 0.000 -0.901
83 249.00 1200.03 374 921 2.000 10000.000 0.000 -0.901
84 252.00 1200.03 392 1025 2.000 10000.000 0.000 -0.901
85 255.00 1200.03 401 976 2.000 10000.000 0.000 -0.901
86 258.00 1200.03 425 1077 2.000 10000.000 0.000 -0.901
87 261.00 1200.03 405 1111 2.000 10000.000 0.000 -0.901
88 264.00 1200.03 447 1162 2.000 10000.000 0.000 -0.901
89 267.00 1200.03 492 1224 2.000 10000.000 0.000 -0.901
90 270.00 1200.03 439 1386 2.000 10000.000 0.000 -0.901
91 273.00 1200.03 468 1339 2.000 10000.000 0.000 -0.901
92 276.00 1200.03 434 1330 2.000 10000.000 0.000 -0.901
93 279.00 1200.03 438 1320 2.000 10000.000 0.000 -0.901
94 282.00 1200.03 447 1396 2.000 10000.000 0.000 -0.901
95 285.00 1200.03 421 1325 2.000 10000.000 0.000 -0.901
96 288.00 1200.03 443 1308 2.000 10000.000 0.000 -0.901
97 291.00 1200.03 446 1173 2.000 10000.000 0.000 -0.901
98 294.00 1200.03 427 1342 2.000 10000.000 0.000 -0.901
99 297.00 1200.03 421 1151 2.000 10000.000 0.000 -0.901
100 300.00 1200.03 453 1216 2.000 10000.000 0.000 -0.901
101 303.00 1200.03 336 1084 2.000 10000.000 0.000 -0.901
