# BinNR microsec tot-time (s)  O-Beam AUX Ampl(V) f(Hz) phase(deg) chi(pos)
0 0.00 1200.00 224 615 2.000 10000.000 0.000 -0.703
1 3.00 1200.00 457 1306 2.000 10000.000 0.000 -0.703
2 6.00 1200.00 448 1362 2.000 10000.000 0.000 -0.703
3 9.00 1200.00 441 1236 2.000 10000.000 0.000 -0.703
4 12.00 1200.00 399 1318 2.000 10000.000 0.000 -0.703
5 15.00 1200.00 394 1242 2.000 10000.000 0.000 -0.703
6 18.00 1200.00 383 1158 2.000 10000.000 0.000 -0.703
7 21.00 1200.00 366 1128 2.000 10000.000 0.000 -0.703
8 24.00 1200.00 363 1081 2.000 10000.000 0.000 -0.703
9 27.00 1200.00 362 973 2.000 10000.000 0.000 -0.703
10 30.00 1200.00 364 909 2.000 10000.000 0.000 -0.703
11 33.00 1200.00 328 817 2.000 10000.000 0.000 -0.703
12 36.00 1200.00 328 769 2.000 10000.000 0.000 -0.703
13 39.00 1200.00 348 743 2.000 10000.000 0.000 -0.703
14 42.00 1200.00 353 800 2.000 10000.000 0.000 -0.703
15 45.00 1200.00 333 752 2.000 10000.000 0.000 -0.703
16 48.00 1200.00 300 748 2.000 10000.000 0.000 -0.703
17 51.00 1200.00 337 751 2.000 10000.000 0.000 -0.703
18 54.00 1200.00 362 767 2.000 10000.000 0.000 -0.703
19 57.00 1200.00 363 781 2.000 10000.000 0.000 -0.703
20 60.00 1200.00 368 829 2.000 10000.000 0.000 -0.703
21 63.00 1200.00 375 917 2.000 10000.000 0.000 -0.703
22 66.00 1200.00 405 951 2.000 10000.000 0.000 -0.703
23 69.00 1200.00 429 1002 2.000 10000.000 0.000 -0.703
24 72.00 1200.00 468 1061 2.000 10000.000 0.000 -0.703
25 75.00 1200.00 470 1109 2.000 10000.000 0.000 -0.703
26 78.00 1200.00 432 1201 2.000 10000.000 0.000 -0.703
27 81.00 1200.00 468 1166 2.000 10000.000 0.000 -0.703
28 84.00 1200.00 455 1275 2.000 10000.000 0.000 -0.703
29 87.00 1200.00 477 1272 2.000 10000.000 0.000 -0.703
30 90.00 1200.00 480 1418 2.000 10000.000 0.000 -0.703
31 93.00 1200.00 468 1289 2.000 10000.000 0.000 -0.703
32 96.00 1200.00 416 1358 2.000 10000.000 0.000 -0.703
33 99.00 1200.00 430 1255 2.000 10000.000 0.000 -0.703
34 102.00 1200.00 443 1285 2.000 10000.000 0.000 -0.703
35 105.00 1200.00 414 1230 2.000 10000.000 0.000 -0.703
36 108.00 1200.00 412 1305 2.000 10000.000 0.000 -0.703
37 111.00 1200.00 427 1299 2.000 10000.000 0.000 -0.703
38 114.00 1200.00 433 1273 2.000 10000.000 0.000 -0.703
39 117.00 1200.00 439 1235 2.000 10000.000 0.000 -0.703
40 120.00 1200.00 382 1219 2.000 10000.000 0.000 -0.703
41 123.00 1200.00 369 1166 2.000 10000.000 0.000 -0.703
42 126.00 1200.00 374 1056 2.000 10000.000 0.000 -0.703
43 129.00 1200.00 364 950 2.000 10000.000 0.000 -0.703
44 132.00 1200.00 371 937 2.000 10000.000 0.000 -0.703
45 135.00 1200.00 327 830 2.000 10000.000 0.000 -0.703
46 138.00 1200.00 346 827 2.000 10000.000 0.000 -0.703
47 141.00 1200.00 319 724 2.000 10000.000 0.000 -0.703
48 144.00 1200.00 363 679 2.000 10000.000 0.000 -0.703
49 147.00 1200.00 328 658 2.000 10000.000 0.000 -0.703
50 150.00 1200.00 321 655 2.000 10000.000 0.000 -0.703
51 153.00 1200.00 345 739 2.000 10000.000 0.000 -0.703
52 156.00 1200.00 349 699 2.000 10000.000 0.000 -0.703
53 159.00 1200.00 336 774 2.000 10000.000 0.000 -0.703
54 162.00 1200.00 401 805 2.000 10000.000 0.000 -0.703
55 165.00 1200.00 429 805 2.000 10000.000 0.000 -0.703
56 168.00 1200.00 392 931 2.000 10000.000 0.000 -0.703
57 171.00 1200.00 426 1012 2.000 10000.000 0.000 -0.703
58 174.00 1200.00 432 1080 2.000 10000.000 0.000 -0.703
59 177.00 1200.00 424 1179 2.000 10000.000 0.000 -0.703
60 180.00 1200.00 455 1227 2.000 10000.000 0.000 -0.703
61 183.00 1200.00 424 1231 2.000 10000.000 0.000 -0.703
62 186.00 1200.00 486 1268 2.000 10000.000 0.000 -0.703
63 189.00 1200.00 432 1305 2.000 10000.000 0.000 -0.703
64 192.00 1200.00 450 1266 2.000 10000.000 0.000 -0.703
65 195.00 1200.00 424 1301 2.000 10000.000 0.000 -0.703
66 198.00 1200.00 452 1276 2.000 10000.000 0.000 -0.703
67 201.00 1200.00 421 1254 2.000 10000.000 0.000 -0.703
68 204.00 1200.00 442 1289 2.000 10000.000 0.000 -0.703
69 207.00 1200.00 458 1292 2.000 10000.000 0.000 -0.703
70 210.00 1200.00 457 1288 2.000 10000.000 0.000 -0.703
71 213.00 1200.00 439 1223 2.000 10000.000 0.000 -0.703
72 216.00 1200.00 377 1251 2.000 10000.000 0.000 -0.703
73 219.00 1200.00 398 1226 2.000 10000.000 0.000 -0.703
74 222.00 1200.00 374 1197 2.000 10000.000 0.000 -0.703
75 225.00 1200.00 386 1088 2.000 10000.000 0.000 -0.703
76 228.00 1200.00 371 1065 2.000 10000.000 0.000 -0.703
77 231.00 1200.00 347 912 2.000 10000.000 0.000 -0.703
78 234.00 1200.00 339 837 2.000 10000.000 0.000 -0.703
79 237.00 1200.00 344 794 2.000 10000.000 0.000 -0.703
80 240.00 1200.00 307 814 2.000 10000.000 0.000 -0.703
81 243.00 1200.00 358 716 2.000 10000.000 0.000 -0.703
82 246.00 1200.00 309 738 2.000 10000.000 0.000 -0.703
83 249.00 1200.00 350 667 2.000 10000.000 0.000 -0.703
84 252.00 1200.00 313 689 2.000 10000.000 0.000 -0.703
85 255.00 1200.00 341 683 2.000 10000.000 0.000 -0.703
86 258.00 1200.00 373 749 2.000 10000.000 0.000 -0.703
87 261.00 1200.00 377 804 2.000 10000.000 0.000 -0.703
88 264.00 1200.00 400 892 2.000 10000.000 0.000 -0.703
89 267.00 1200.00 389 888 2.000 10000.000 0.000 -0.703
90 270.00 1200.00 414 1062 2.000 10000.000 0.000 -0.703
91 273.00 1200.00 429 1064 2.000 10000.000 0.000 -0.703
92 276.00 1200.00 434 1170 2.000 10000.000 0.000 -0.703
93 279.00 1200.00 460 1196 2.000 10000.000 0.000 -0.703
94 282.00 1200.00 436 1252 2.000 10000.000 0.000 -0.703
95 285.00 1200.00 406 1285 2.000 10000.000 0.000 -0.703
96 288.00 1200.00 445 1302 2.000 10000.000 0.000 -0.703
97 291.00 1200.00 477 1269 2.000 10000.000 0.000 -0.703
98 294.00 1200.00 445 1291 2.000 10000.000 0.000 -0.703
99 297.00 1200.00 445 1287 2.000 10000.000 0.000 -0.703
100 300.00 1200.00 434 1291 2.000 10000.000 0.000 -0.703
101 303.00 1200.00 332 1066 2.000 10000.000 0.000 -0.703
