# BinNR microsec tot-time (s)  O-Beam AUX Ampl(V) f(Hz) phase(deg) chi(pos)
0 0.00 1200.01 92 192 2.000 10000.000 0.000 0.494
1 3.00 1200.01 205 373 2.000 10000.000 0.000 0.494
2 6.00 1200.01 183 431 2.000 10000.000 0.000 0.494
3 9.00 1200.01 219 442 2.000 10000.000 0.000 0.494
4 12.00 1200.01 236 473 2.000 10000.000 0.000 0.494
5 15.00 1200.01 240 477 2.000 10000.000 0.000 0.494
6 18.00 1200.01 246 573 2.000 10000.000 0.000 0.494
7 21.00 1200.01 267 680 2.000 10000.000 0.000 0.494
8 24.00 1200.01 256 779 2.000 10000.000 0.000 0.494
9 27.00 1200.01 297 789 2.000 10000.000 0.000 0.494
10 30.00 1200.01 297 865 2.000 10000.000 0.000 0.494
11 33.00 1200.01 296 946 2.000 10000.000 0.000 0.494
12 36.00 1200.01 334 1010 2.000 10000.000 0.000 0.494
13 39.00 1200.01 326 1014 2.000 10000.000 0.000 0.494
14 42.00 1200.01 343 1023 2.000 10000.000 0.000 0.494
15 45.00 1200.01 325 957 2.000 10000.000 0.000 0.494
16 48.00 1200.01 309 1038 2.000 10000.000 0.000 0.494
17 51.00 1200.01 315 1040 2.000 10000.000 0.000 0.494
18 54.00 1200.01 298 1005 2.000 10000.000 0.000 0.494
19 57.00 1200.01 309 970 2.000 10000.000 0.000 0.494
20 60.00 1200.01 274 956 2.000 10000.000 0.000 0.494
21 63.00 1200.01 251 857 2.000 10000.000 0.000 0.494
22 66.00 1200.01 238 854 2.000 10000.000 0.000 0.494
23 69.00 1200.01 223 781 2.000 10000.000 0.000 0.494
24 72.00 1200.01 210 730 2.000 10000.000 0.000 0.494
25 75.00 1200.01 180 652 2.000 10000.000 0.000 0.494
26 78.00 1200.01 174 620 2.000 10000.000 0.000 0.494
27 81.00 1200.01 205 517 2.000 10000.000 0.000 0.494
28 84.00 1200.01 160 479 2.000 10000.000 0.000 0.494
29 87.00 1200.01 190 473 2.000 10000.000 0.000 0.494
30 90.00 1200.01 173 409 2.000 10000.000 0.000 0.494
31 93.00 1200.01 188 363 2.000 10000.000 0.000 0.494
32 96.00 1200.01 178 323 2.000 10000.000 0.000 0.494
33 99.00 1200.01 180 323 2.000 10000.000 0.000 0.494
34 102.00 1200.01 190 339 2.000 10000.000 0.000 0.494
35 105.00 1200.01 192 359 2.000 10000.000 0.000 0.494
36 108.00 1200.01 203 411 2.000 10000.000 0.000 0.494
37 111.00 1200.01 194 398 2.000 10000.000 0.000 0.494
38 114.00 1200.01 214 439 2.000 10000.000 0.000 0.494
39 117.00 1200.01 243 501 2.000 10000.000 0.000 0.494
40 120.00 1200.01 256 593 2.000 10000.000 0.000 0.494
41 123.00 1200.01 290 616 2.000 10000.000 0.000 0.494
42 126.00 1200.01 296 709 2.000 10000.000 0.000 0.494
43 129.00 1200.01 246 788 2.000 10000.000 0.000 0.494
44 132.00 1200.01 317 880 2.000 10000.000 0.000 0.494
45 135.00 1200.01 305 957 2.000 10000.000 0.000 0.494
46 138.00 1200.01 320 904 2.000 10000.000 0.000 0.494
47 141.00 1200.01 301 1020 2.000 10000.000 0.000 0.494
48 144.00 1200.01 315 977 2.000 10000.000 0.000 0.494
49 147.00 1200.01 303 955 2.000 10000.000 0.000 0.494
50 150.00 1200.01 329 1043 2.000 10000.000 0.000 0.494
51 153.00 1200.01 312 1032 2.000 10000.000 0.000 0.494
52 156.00 1200.01 299 1016 2.000 10000.000 0.000 0.494
53 159.00 1200.01 292 915 2.000 10000.000 0.000 0.494
54 162.00 1200.01 272 907 2.000 10000.000 0.000 0.494
55 165.00 1200.01 295 868 2.000 10000.000 0.000 0.494
56 168.00 1200.01 254 863 2.000 10000.000 0.000 0.494
57 171.00 1200.01 200 777 2.000 10000.000 0.000 0.494
58 174.00 1200.01 196 717 2.000 10000.000 0.000 0.494
59 177.00 1200.01 199 582 2.000 10000.000 0.000 0.494
60 180.00 1200.01 172 540 2.000 10000.000 0.000 0.494
61 183.00 1200.01 189 448 2.000 10000.000 0.000 0.494
62 186.00 1200.01 195 427 2.000 10000.000 0.000 0.494
63 189.00 1200.01 186 356 2.000 10000.000 0.000 0.494
64 192.00 1200.01 158 358 2.000 10000.000 0.000 0.494
65 195.00 1200.01 187 324 2.000 10000.000 0.000 0.494
66 198.00 1200.01 139 364 2.000 10000.000 0.000 0.494
67 201.00 1200.01 181 347 2.000 10000.000 0.000 0.494
68 204.00 1200.01 165 374 2.000 10000.000 0.000 0.494
69 207.00 1200.01 208 356 2.000 10000.000 0.000 0.494
70 210.00 1200.01 214 442 2.000 10000.000 0.000 0.494
71 213.00 1200.01 222 441 2.000 10000.000 0.000 0.494
72 216.00 1200.01 225 503 2.000 10000.000 0.000 0.494
73 219.00 1200.01 247 516 2.000 10000.000 0.000 0.494
74 222.00 1200.01 246 626 2.000 10000.000 0.000 0.494
75 225.00 1200.01 255 659 2.000 10000.000 0.000 0.494
76 228.00 1200.01 269 775 2.000 10000.000 0.000 0.494
77 231.00 1200.01 288 823 2.000 10000.000 0.000 0.494
78 234.00 1200.01 297 894 2.000 10000.000 0.000 0.494
79 237.00 1200.01 313 956 2.000 10000.000 0.000 0.494
80 240.00 1200.01 332 1025 2.000 10000.000 0.000 0.494
81 243.00 1200.01 332 1047 2.000 10000.000 0.000 0.494
82 246.00 1200.01 328 1069 2.000 10000.000 0.000 0.494
83 249.00 1200.01 313 1083 2.000 10000.000 0.000 0.494
84 252.00 1200.01 356 1056 2.000 10000.000 0.000 0.494
85 255.00 1200.01 315 995 2.000 10000.000 0.000 0.494
86 258.00 1200.01 309 1039 2.000 10000.000 0.000 0.494
87 261.00 1200.01 311 915 2.000 10000.000 0.000 0.494
88 264.00 1200.01 292 951 2.000 10000.000 0.000 0.494
89 267.00 1200.01 260 844 2.000 10000.000 0.000 0.494
90 270.00 1200.01 235 758 2.000 10000.000 0.000 0.494
91 273.00 1200.01 247 657 2.000 10000.000 0.000 0.494
92 276.00 1200.01 206 626 2.000 10000.000 0.000 0.494
93 279.00 1200.01 194 547 2.000 10000.000 0.000 0.494
94 282.00 1200.01 165 530 2.000 10000.000 0.000 0.494
95 285.00 1200.01 157 454 2.000 10000.000 0.000 0.494
96 288.00 1200.01 198 424 2.000 10000.000 0.000 0.494
97 291.00 1200.01 170 366 2.000 10000.000 0.000 0.494
98 294.00 1200.01 143 350 2.000 10000.000 0.000 0.494
99 297.00 1200.01 160 355 2.000 10000.000 0.000 0.494
100 300.00 1200.01 184 339 2.000 10000.000 0.000 0.494
101 303.00 1200.01 129 297 2.000 10000.000 0.000 0.494
