# BinNR microsec tot-time (s)  O-Beam AUX Ampl(V) f(Hz) phase(deg) chi(pos)
0 0.00 1200.01 213 610 2.000 10000.000 0.000 1.088
1 3.00 1200.01 438 1179 2.000 10000.000 0.000 1.088
2 6.00 1200.01 439 1202 2.000 10000.000 0.000 1.088
3 9.00 1200.01 437 1228 2.000 10000.000 0.000 1.088
4 12.00 1200.01 464 1264 2.000 10000.000 0.000 1.088
5 15.00 1200.01 424 1270 2.000 10000.000 0.000 1.088
6 18.00 1200.01 438 1289 2.000 10000.000 0.000 1.088
7 21.00 1200.01 421 1293 2.000 10000.000 0.000 1.088
8 24.00 1200.01 429 1343 2.000 10000.000 0.000 1.088
9 27.00 1200.01 421 1216 2.000 10000.000 0.000 1.088
10 30.00 1200.01 445 1225 2.000 10000.000 0.000 1.088
11 33.00 1200.01 367 1171 2.000 10000.000 0.000 1.088
12 36.00 1200.01 425 1151 2.000 10000.000 0.000 1.088
13 39.00 1200.01 443 1114 2.000 10000.000 0.000 1.088
14 42.00 1200.01 406 1061 2.000 10000.000 0.000 1.088
15 45.00 1200.01 441 1104 2.000 10000.000 0.000 1.088
16 48.00 1200.01 423 1100 2.000 10000.000 0.000 1.088
17 51.00 1200.01 464 1141 2.000 10000.000 0.000 1.088
18 54.00 1200.01 439 1184 2.000 10000.000 0.000 1.088
19 57.00 1200.01 441 1118 2.000 10000.000 0.000 1.088
20 60.00 1200.01 462 1138 2.000 10000.000 0.000 1.088
21 63.00 1200.01 460 1106 2.000 10000.000 0.000 1.088
22 66.00 1200.01 440 1268 2.000 10000.000 0.000 1.088
23 69.00 1200.01 477 1237 2.000 10000.000 0.000 1.088
24 72.00 1200.01 447 1301 2.000 10000.000 0.000 1.088
25 75.00 1200.01 455 1250 2.000 10000.000 0.000 1.088
26 78.00 1200.01 375 1319 2.000 10000.000 0.000 1.088
27 81.00 1200.01 427 1248 2.000 10000.000 0.000 1.088
28 84.00 1200.01 409 1192 2.000 10000.000 0.000 1.088
29 87.00 1200.01 411 1281 2.000 10000.000 0.000 1.088
30 90.00 1200.01 392 1256 2.000 10000.000 0.000 1.088
31 93.00 1200.01 387 1136 2.000 10000.000 0.000 1.088
32 96.00 1200.01 412 1122 2.000 10000.000 0.000 1.088
33 99.00 1200.01 401 1153 2.000 10000.000 0.000 1.088
34 102.00 1200.01 412 1096 2.000 10000.000 0.000 1.088
35 105.00 1200.01 391 1150 2.000 10000.000 0.000 1.088
36 108.00 1200.01 447 1245 2.000 10000.000 0.000 1.088
37 111.00 1200.01 406 1238 2.000 10000.000 0.000 1.088
38 114.00 1200.01 417 1265 2.000 10000.000 0.000 1.088
39 117.00 1200.01 427 1357 2.000 10000.000 0.000 1.088
40 120.00 1200.01 433 1325 2.000 10000.000 0.000 1.088
41 123.00 1200.01 448 1248 2.000 10000.000 0.000 1.088
42 126.00 1200.01 398 1379 2.000 10000.000 0.000 1.088
43 129.00 1200.01 415 1238 2.000 10000.000 0.000 1.088
44 132.00 1200.01 417 1253 2.000 10000.000 0.000 1.088
45 135.00 1200.01 431 1149 2.000 10000.000 0.000 1.088
46 138.00 1200.01 415 1159 2.000 10000.000 0.000 1.088
47 141.00 1200.01 446 1052 2.000 10000.000 0.000 1.088
48 144.00 1200.01 401 1077 2.000 10000.000 0.000 1.088
49 147.00 1200.01 416 1081 2.000 10000.000 0.000 1.088
50 150.00 1200.01 450 1068 2.000 10000.000 0.000 1.088
51 153.00 1200.01 455 998 2.000 10000.000 0.000 1.088
52 156.00 1200.01 441 1060 2.000 10000.000 0.000 1.088
53 159.00 1200.01 436 1038 2.000 10000.000 0.000 1.088
54 162.00 1200.01 426 1167 2.000 10000.000 0.000 1.088
55 165.00 1200.01 433 1166 2.000 10000.000 0.000 1.088
56 168.00 1200.01 467 1230 2.000 10000.000 0.000 1.088
57 171.00 1200.01 458 1330 2.000 10000.000 0.000 1.088
58 174.00 1200.01 457 1272 2.000 10000.000 0.000 1.088
59 177.00 1200.01 462 1265 2.000 10000.000 0.000 1.088
60 180.00 1200.01 416 1269 2.000 10000.000 0.000 1.088
61 183.00 1200.01 448 1278 2.000 10000.000 0.000 1.088
62 186.00 1200.01 442 1318 2.000 10000.000 0.000 1.088
63 189.00 1200.01 427 1181 2.000 10000.000 0.000 1.088
64 192.00 1200.01 419 1183 2.000 10000.000 0.000 1.088
65 195.00 1200.01 424 1176 2.000 10000.000 0.000 1.088
66 198.00 1200.01 415 1126 2.000 10000.000 0.000 1.088
67 201.00 1200.01 398 1141 2.000 10000.000 0.000 1.088
68 204.00 1200.01 392 1149 2.000 10000.000 0.000 1.088
69 207.00 1200.01 437 1181 2.000 10000.000 0.000 1.088
70 210.00 1200.01 406 1257 2.000 10000.000 0.000 1.088
71 213.00 1200.01 431 1253 2.000 10000.000 0.000 1.088
72 216.00 1200.01 399 1329 2.000 10000.000 0.000 1.088
73 219.00 1200.01 425 1242 2.000 10000.000 0.000 1.088
74 222.00 1200.01 411 1335 2.000 10000.000 0.000 1.088
75 225.00 1200.01 462 1329 2.000 10000.000 0.000 1.088
76 228.00 1200.01 450 1376 2.000 10000.000 0.000 1.088
77 231.00 1200.01 438 1186 2.000 10000.000 0.000 1.088
78 234.00 1200.01 413 1205 2.000 10000.000 0.000 1.088
79 237.00 1200.01 414 1222 2.000 10000.000 0.000 1.088
80 240.00 1200.01 431 1141 2.000 10000.000 0.000 1.088
81 243.00 1200.01 377 1120 2.000 10000.000 0.000 1.088
82 246.00 1200.01 417 1063 2.000 10000.000 0.000 1.088
83 249.00 1200.01 428 1065 2.000 10000.000 0.000 1.088
84 252.00 1200.01 384 1041 2.000 10000.000 0.000 1.088
85 255.00 1200.01 469 1023 2.000 10000.000 0.000 1.088
86 258.00 1200.01 455 1089 2.000 10000.000 0.000 1.088
87 261.00 1200.01 438 1170 2.000 10000.000 0.000 1.088
88 264.00 1200.01 503 1218 2.000 10000.000 0.000 1.088
89 267.00 1200.01 431 1214 2.000 10000.000 0.000 1.088
90 270.00 1200.01 456 1356 2.000 10000.000 0.000 1.088
91 273.00 1200.01 404 1283 2.000 10000.000 0.000 1.088
92 276.00 1200.01 419 1303 2.000 10000.000 0.000 1.088
93 279.00 1200.01 427 1311 2.000 10000.000 0.000 1.088
94 282.00 1200.01 405 1275 2.000 10000.000 0.000 1.088
95 285.00 1200.01 439 1258 2.000 10000.000 0.000 1.088
96 288.00 1200.01 419 1212 2.000 10000.000 0.000 1.088
97 291.00 1200.01 442 1226 2.000 10000.000 0.000 1.088
98 294.00 1200.01 399 1185 2.000 10000.000 0.000 1.088
99 297.00 1200.01 381 1097 2.000 10000.000 0.000 1.088
100 300.00 1200.01 380 1167 2.000 10000.000 0.000 1.088
101 303.00 1200.01 342 998 2.000 10000.000 0.000 1.088
