# BinNR microsec tot-time (s)  O-Beam AUX Ampl(V) f(Hz) phase(deg) chi(pos)
0 0.00 1200.03 196 578 2.000 10000.000 0.000 -0.505
1 3.00 1200.03 434 1122 2.000 10000.000 0.000 -0.505
2 6.00 1200.03 365 1131 2.000 10000.000 0.000 -0.505
3 9.00 1200.03 399 1126 2.000 10000.000 0.000 -0.505
4 12.00 1200.03 370 1006 2.000 10000.000 0.000 -0.505
5 15.00 1200.03 360 1006 2.000 10000.000 0.000 -0.505
6 18.00 1200.03 336 945 2.000 10000.000 0.000 -0.505
7 21.00 1200.03 346 840 2.000 10000.000 0.000 -0.505
8 24.00 1200.03 311 807 2.000 10000.000 0.000 -0.505
9 27.00 1200.03 286 676 2.000 10000.000 0.000 -0.505
10 30.00 1200.03 270 606 2.000 10000.000 0.000 -0.505
11 33.00 1200.03 298 612 2.000 10000.000 0.000 -0.505
12 36.00 1200.03 265 579 2.000 10000.000 0.000 -0.505
13 39.00 1200.03 292 528 2.000 10000.000 0.000 -0.505
14 42.00 1200.03 270 517 2.000 10000.000 0.000 -0.505
15 45.00 1200.03 267 537 2.000 10000.000 0.000 -0.505
16 48.00 1200.03 280 501 2.000 10000.000 0.000 -0.505
17 51.00 1200.03 276 548 2.000 10000.000 0.000 -0.505
18 54.00 1200.03 287 595 2.000 10000.000 0.000 -0.505
19 57.00 1200.03 303 575 2.000 10000.000 0.000 -0.505
20 60.00 1200.03 335 613 2.000 10000.000 0.000 -0.505
21 63.00 1200.03 343 661 2.000 10000.000 0.000 -0.505
22 66.00 1200.03 367 699 2.000 10000.000 0.000 -0.505
23 69.00 1200.03 392 771 2.000 10000.000 0.000 -0.505
24 72.00 1200.03 392 790 2.000 10000.000 0.000 -0.505
25 75.00 1200.03 412 898 2.000 10000.000 0.000 -0.505
26 78.00 1200.03 421 1006 2.000 10000.000 0.000 -0.505
27 81.00 1200.03 379 1056 2.000 10000.000 0.000 -0.505
28 84.00 1200.03 451 1049 2.000 10000.000 0.000 -0.505
29 87.00 1200.03 403 1053 2.000 10000.000 0.000 -0.505
30 90.00 1200.03 439 1082 2.000 10000.000 0.000 -0.505
31 93.00 1200.03 384 1153 2.000 10000.000 0.000 -0.505
32 96.00 1200.03 421 1173 2.000 10000.000 0.000 -0.505
33 99.00 1200.03 432 1176 2.000 10000.000 0.000 -0.505
34 102.00 1200.03 412 1179 2.000 10000.000 0.000 -0.505
35 105.00 1200.03 397 1156 2.000 10000.000 0.000 -0.505
36 108.00 1200.03 381 1141 2.000 10000.000 0.000 -0.505
37 111.00 1200.03 371 1185 2.000 10000.000 0.000 -0.505
38 114.00 1200.03 345 1067 2.000 10000.000 0.000 -0.505
39 117.00 1200.03 358 987 2.000 10000.000 0.000 -0.505
40 120.00 1200.03 347 935 2.000 10000.000 0.000 -0.505
41 123.00 1200.03 348 958 2.000 10000.000 0.000 -0.505
42 126.00 1200.03 349 777 2.000 10000.000 0.000 -0.505
43 129.00 1200.03 302 770 2.000 10000.000 0.000 -0.505
44 132.00 1200.03 296 696 2.000 10000.000 0.000 -0.505
45 135.00 1200.03 291 613 2.000 10000.000 0.000 -0.505
46 138.00 1200.03 277 573 2.000 10000.000 0.000 -0.505
47 141.00 1200.03 263 555 2.000 10000.000 0.000 -0.505
48 144.00 1200.03 282 551 2.000 10000.000 0.000 -0.505
49 147.00 1200.03 289 503 2.000 10000.000 0.000 -0.505
50 150.00 1200.03 322 484 2.000 10000.000 0.000 -0.505
51 153.00 1200.03 292 481 2.000 10000.000 0.000 -0.505
52 156.00 1200.03 317 500 2.000 10000.000 0.000 -0.505
53 159.00 1200.03 306 545 2.000 10000.000 0.000 -0.505
54 162.00 1200.03 334 575 2.000 10000.000 0.000 -0.505
55 165.00 1200.03 352 579 2.000 10000.000 0.000 -0.505
56 168.00 1200.03 356 718 2.000 10000.000 0.000 -0.505
57 171.00 1200.03 377 763 2.000 10000.000 0.000 -0.505
58 174.00 1200.03 390 878 2.000 10000.000 0.000 -0.505
59 177.00 1200.03 385 867 2.000 10000.000 0.000 -0.505
60 180.00 1200.03 430 1014 2.000 10000.000 0.000 -0.505
61 183.00 1200.03 439 992 2.000 10000.000 0.000 -0.505
62 186.00 1200.03 441 1120 2.000 10000.000 0.000 -0.505
63 189.00 1200.03 396 1138 2.000 10000.000 0.000 -0.505
64 192.00 1200.03 428 1150 2.000 10000.000 0.000 -0.505
65 195.00 1200.03 427 1185 2.000 10000.000 0.000 -0.505
66 198.00 1200.03 432 1177 2.000 10000.000 0.000 -0.505
67 201.00 1200.03 420 1173 2.000 10000.000 0.000 -0.505
68 204.00 1200.03 395 1148 2.000 10000.000 0.000 -0.505
69 207.00 1200.03 377 1091 2.000 10000.000 0.000 -0.505
70 210.00 1200.03 389 1148 2.000 10000.000 0.000 -0.505
71 213.00 1200.03 408 1028 2.000 10000.000 0.000 -0.505
72 216.00 1200.03 404 1030 2.000 10000.000 0.000 -0.505
73 219.00 1200.03 352 1006 2.000 10000.000 0.000 -0.505
74 222.00 1200.03 322 955 2.000 10000.000 0.000 -0.505
75 225.00 1200.03 349 814 2.000 10000.000 0.000 -0.505
76 228.00 1200.03 319 835 2.000 10000.000 0.000 -0.505
77 231.00 1200.03 266 689 2.000 10000.000 0.000 -0.505
78 234.00 1200.03 274 686 2.000 10000.000 0.000 -0.505
79 237.00 1200.03 273 595 2.000 10000.000 0.000 -0.505
80 240.00 1200.03 283 511 2.000 10000.000 0.000 -0.505
81 243.00 1200.03 258 534 2.000 10000.000 0.000 -0.505
82 246.00 1200.03 281 449 2.000 10000.000 0.000 -0.505
83 249.00 1200.03 231 478 2.000 10000.000 0.000 -0.505
84 252.00 1200.03 283 502 2.000 10000.000 0.000 -0.505
85 255.00 1200.03 280 503 2.000 10000.000 0.000 -0.505
86 258.00 1200.03 295 515 2.000 10000.000 0.000 -0.505
87 261.00 1200.03 289 618 2.000 10000.000 0.000 -0.505
88 264.00 1200.03 352 644 2.000 10000.000 0.000 -0.505
89 267.00 1200.03 320 694 2.000 10000.000 0.000 -0.505
90 270.00 1200.03 390 811 2.000 10000.000 0.000 -0.505
91 273.00 1200.03 384 825 2.000 10000.000 0.000 -0.505
92 276.00 1200.03 436 960 2.000 10000.000 0.000 -0.505
93 279.00 1200.03 385 985 2.000 10000.000 0.000 -0.505
94 282.00 1200.03 388 1113 2.000 10000.000 0.000 -0.505
95 285.00 1200.03 437 1093 2.000 10000.000 0.000 -0.505
96 288.00 1200.03 427 1107 2.000 10000.000 0.000 -0.505
97 291.00 1200.03 426 1084 2.000 10000.000 0.000 -0.505
98 294.00 1200.03 443 1139 2.000 10000.000 0.000 -0.505
99 297.00 1200.03 425 1209 2.000 10000.000 0.000 -0.505
100 300.00 1200.03 463 1217 2.000 10000.000 0.000 -0.505
101 303.00 1200.03 329 959 2.000 10000.000 0.000 -0.505
