# BinNR microsec tot-time (s)  O-Beam AUX Ampl_1(V) f_1(Hz) phase_1(deg) Ampl_2(V) f_2(Hz) phase_2(deg) chi(pos)
0 0.00 1200.00 188 472 1.362 3.100 10000.000 0.000
1 3.00 1200.00 362 1017 1.362 3.100 10000.000 0.000
2 6.00 1200.00 362 1018 1.362 3.100 10000.000 0.000
3 9.00 1200.00 362 975 1.362 3.100 10000.000 0.000
4 12.00 1200.00 334 1065 1.362 3.100 10000.000 0.000
5 15.00 1200.00 368 992 1.362 3.100 10000.000 0.000
6 18.00 1200.00 345 979 1.362 3.100 10000.000 0.000
7 21.00 1200.00 371 1015 1.362 3.100 10000.000 0.000
8 24.00 1200.00 397 986 1.362 3.100 10000.000 0.000
9 27.00 1200.00 364 1016 1.362 3.100 10000.000 0.000
10 30.00 1200.00 350 1037 1.362 3.100 10000.000 0.000
11 33.00 1200.00 384 985 1.362 3.100 10000.000 0.000
12 36.00 1200.00 377 1047 1.362 3.100 10000.000 0.000
13 39.00 1200.00 369 978 1.362 3.100 10000.000 0.000
14 42.00 1200.00 368 1062 1.362 3.100 10000.000 0.000
15 45.00 1200.00 371 1021 1.362 3.100 10000.000 0.000
16 48.00 1200.00 370 1054 1.362 3.100 10000.000 0.000
17 51.00 1200.00 383 987 1.362 3.100 10000.000 0.000
18 54.00 1200.00 415 964 1.362 3.100 10000.000 0.000
19 57.00 1200.00 366 1065 1.362 3.100 10000.000 0.000
20 60.00 1200.00 365 962 1.362 3.100 10000.000 0.000
21 63.00 1200.00 337 1014 1.362 3.100 10000.000 0.000
22 66.00 1200.00 365 975 1.362 3.100 10000.000 0.000
23 69.00 1200.00 369 1049 1.362 3.100 10000.000 0.000
24 72.00 1200.00 352 1024 1.362 3.100 10000.000 0.000
25 75.00 1200.00 354 994 1.362 3.100 10000.000 0.000
26 78.00 1200.00 342 931 1.362 3.100 10000.000 0.000
27 81.00 1200.00 381 925 1.362 3.100 10000.000 0.000
28 84.00 1200.00 358 885 1.362 3.100 10000.000 0.000
29 87.00 1200.00 345 851 1.362 3.100 10000.000 0.000
30 90.00 1200.00 347 862 1.362 3.100 10000.000 0.000
31 93.00 1200.00 364 852 1.362 3.100 10000.000 0.000
32 96.00 1200.00 352 924 1.362 3.100 10000.000 0.000
33 99.00 1200.00 347 952 1.362 3.100 10000.000 0.000
34 102.00 1200.00 392 961 1.362 3.100 10000.000 0.000
35 105.00 1200.00 365 1069 1.362 3.100 10000.000 0.000
36 108.00 1200.00 400 1059 1.362 3.100 10000.000 0.000
37 111.00 1200.00 342 1056 1.362 3.100 10000.000 0.000
38 114.00 1200.00 358 1082 1.362 3.100 10000.000 0.000
39 117.00 1200.00 390 1062 1.362 3.100 10000.000 0.000
40 120.00 1200.00 342 1125 1.362 3.100 10000.000 0.000
41 123.00 1200.00 337 1108 1.362 3.100 10000.000 0.000
42 126.00 1200.00 371 1157 1.362 3.100 10000.000 0.000
43 129.00 1200.00 371 1045 1.362 3.100 10000.000 0.000
44 132.00 1200.00 379 1052 1.362 3.100 10000.000 0.000
45 135.00 1200.00 378 1062 1.362 3.100 10000.000 0.000
46 138.00 1200.00 390 1120 1.362 3.100 10000.000 0.000
47 141.00 1200.00 361 1065 1.362 3.100 10000.000 0.000
48 144.00 1200.00 379 1093 1.362 3.100 10000.000 0.000
49 147.00 1200.00 331 978 1.362 3.100 10000.000 0.000
50 150.00 1200.00 385 1078 1.362 3.100 10000.000 0.000
51 153.00 1200.00 346 957 1.362 3.100 10000.000 0.000
52 156.00 1200.00 382 953 1.362 3.100 10000.000 0.000
53 159.00 1200.00 386 940 1.362 3.100 10000.000 0.000
54 162.00 1200.00 365 909 1.362 3.100 10000.000 0.000
55 165.00 1200.00 335 857 1.362 3.100 10000.000 0.000
56 168.00 1200.00 352 926 1.362 3.100 10000.000 0.000
57 171.00 1200.00 327 835 1.362 3.100 10000.000 0.000
58 174.00 1200.00 361 821 1.362 3.100 10000.000 0.000
59 177.00 1200.00 376 817 1.362 3.100 10000.000 0.000
60 180.00 1200.00 387 852 1.362 3.100 10000.000 0.000
61 183.00 1200.00 371 889 1.362 3.100 10000.000 0.000
62 186.00 1200.00 339 877 1.362 3.100 10000.000 0.000
63 189.00 1200.00 362 842 1.362 3.100 10000.000 0.000
64 192.00 1200.00 382 939 1.362 3.100 10000.000 0.000
65 195.00 1200.00 382 951 1.362 3.100 10000.000 0.000
66 198.00 1200.00 374 978 1.362 3.100 10000.000 0.000
67 201.00 1200.00 412 1041 1.362 3.100 10000.000 0.000
68 204.00 1200.00 366 1070 1.362 3.100 10000.000 0.000
69 207.00 1200.00 385 996 1.362 3.100 10000.000 0.000
70 210.00 1200.00 366 1025 1.362 3.100 10000.000 0.000
71 213.00 1200.00 355 1040 1.362 3.100 10000.000 0.000
72 216.00 1200.00 373 1099 1.362 3.100 10000.000 0.000
73 219.00 1200.00 369 1123 1.362 3.100 10000.000 0.000
74 222.00 1200.00 383 1079 1.362 3.100 10000.000 0.000
75 225.00 1200.00 357 1060 1.362 3.100 10000.000 0.000
76 228.00 1200.00 357 1008 1.362 3.100 10000.000 0.000
77 231.00 1200.00 360 1039 1.362 3.100 10000.000 0.000
78 234.00 1200.00 363 1099 1.362 3.100 10000.000 0.000
79 237.00 1200.00 370 1099 1.362 3.100 10000.000 0.000
80 240.00 1200.00 400 1119 1.362 3.100 10000.000 0.000
81 243.00 1200.00 394 1044 1.362 3.100 10000.000 0.000
82 246.00 1200.00 345 1118 1.362 3.100 10000.000 0.000
83 249.00 1200.00 361 1002 1.362 3.100 10000.000 0.000
84 252.00 1200.00 387 974 1.362 3.100 10000.000 0.000
85 255.00 1200.00 336 962 1.362 3.100 10000.000 0.000
86 258.00 1200.00 367 895 1.362 3.100 10000.000 0.000
87 261.00 1200.00 399 926 1.362 3.100 10000.000 0.000
88 264.00 1200.00 328 942 1.362 3.100 10000.000 0.000
89 267.00 1200.00 389 897 1.362 3.100 10000.000 0.000
90 270.00 1200.00 419 899 1.362 3.100 10000.000 0.000
91 273.00 1200.00 387 897 1.362 3.100 10000.000 0.000
92 276.00 1200.00 380 888 1.362 3.100 10000.000 0.000
93 279.00 1200.00 378 912 1.362 3.100 10000.000 0.000
94 282.00 1200.00 402 925 1.362 3.100 10000.000 0.000
95 285.00 1200.00 343 991 1.362 3.100 10000.000 0.000
96 288.00 1200.00 354 1036 1.362 3.100 10000.000 0.000
97 291.00 1200.00 336 1008 1.362 3.100 10000.000 0.000
98 294.00 1200.00 368 1042 1.362 3.100 10000.000 0.000
99 297.00 1200.00 352 1020 1.362 3.100 10000.000 0.000
100 300.00 1200.00 378 1030 1.362 3.100 10000.000 0.000
101 303.00 1200.00 345 989 1.362 3.100 10000.000 0.000
102 306.00 1200.00 374 1009 1.362 3.100 10000.000 0.000
103 309.00 1200.00 372 1050 1.362 3.100 10000.000 0.000
104 312.00 1200.00 360 1023 1.362 3.100 10000.000 0.000
105 315.00 1200.00 354 1007 1.362 3.100 10000.000 0.000
106 318.00 1200.00 368 954 1.362 3.100 10000.000 0.000
107 321.00 1200.00 394 997 1.362 3.100 10000.000 0.000
108 324.00 1200.00 356 1048 1.362 3.100 10000.000 0.000
109 327.00 1200.00 390 926 1.362 3.100 10000.000 0.000
110 330.00 1200.00 390 963 1.362 3.100 10000.000 0.000
111 333.00 1200.00 376 1066 1.362 3.100 10000.000 0.000
112 336.00 1200.00 381 1017 1.362 3.100 10000.000 0.000
113 339.00 1200.00 356 1049 1.362 3.100 10000.000 0.000
114 342.00 1200.00 392 1019 1.362 3.100 10000.000 0.000
115 345.00 1200.00 346 994 1.362 3.100 10000.000 0.000
116 348.00 1200.00 355 1005 1.362 3.100 10000.000 0.000
117 351.00 1200.00 349 987 1.362 3.100 10000.000 0.000
118 354.00 1200.00 403 1066 1.362 3.100 10000.000 0.000
119 357.00 1200.00 345 929 1.362 3.100 10000.000 0.000
120 360.00 1200.00 373 1040 1.362 3.100 10000.000 0.000
121 363.00 1200.00 360 977 1.362 3.100 10000.000 0.000
122 366.00 1200.00 386 1048 1.362 3.100 10000.000 0.000
123 369.00 1200.00 380 1025 1.362 3.100 10000.000 0.000
124 372.00 1200.00 365 965 1.362 3.100 10000.000 0.000
125 375.00 1200.00 377 1020 1.362 3.100 10000.000 0.000
126 378.00 1200.00 405 1114 1.362 3.100 10000.000 0.000
127 381.00 1200.00 349 1025 1.362 3.100 10000.000 0.000
128 384.00 1200.00 361 1045 1.362 3.100 10000.000 0.000
129 387.00 1200.00 398 1033 1.362 3.100 10000.000 0.000
130 390.00 1200.00 349 1048 1.362 3.100 10000.000 0.000
131 393.00 1200.00 361 972 1.362 3.100 10000.000 0.000
132 396.00 1200.00 360 1041 1.362 3.100 10000.000 0.000
133 399.00 1200.00 372 951 1.362 3.100 10000.000 0.000
134 402.00 1200.00 392 1046 1.362 3.100 10000.000 0.000
