Start Motor Scan on 31/01/2025@15:16 | Measure Time (sec):60| Bg detector (cnts/sec):0.000000| Bg monitor (cnts/sec):0.00000060| Mon.lim.  (cnts/sec):  0
Ioff (cnts/sec): 0.103026   ErrIoff: 0.000826  Pp.d.Pa:  0.000000  ErrPp.d.Pal:  0.000000	Pol: 0.000000	ErrPol: 0.000000
Power Supply 1 (mA): OFF| Power Supply 2 (mA): OFF| Power Supply 3 (mA): OFF| Power Supply 4 (mA): OFF| Power Supply 5 (mA): OFF| Power Supply 6 (mA): OFF   
Position (Steps)Detector (cnts):   Monitor_Max,Min (cnts/sec):   Norm(1/s):   err(1/s) :     FlippRatio:     ErrFlippRatio        
3600000.00000000	480.00000000	455.00000000	354.00000000	0.02002837	0.00092328	5.14402080	0.24069389
3400000.00000000	1349.00000000	441.00000000	349.00000000	0.05610314	0.00156976	1.83637440	0.05345135
3200000.00000000	3181.00000000	451.00000000	356.00000000	0.13177845	0.00248567	0.78181501	0.01602496
3000000.00000000	5502.00000000	459.00000000	354.00000000	0.22957523	0.00343196	0.44876954	0.00761345
2800000.00000000	7951.00000000	443.00000000	338.00000000	0.33298434	0.00431147	0.30940305	0.00471257
2600000.00000000	9853.00000000	448.00000000	362.00000000	0.41083267	0.00491607	0.25077453	0.00361261
2400000.00000000	11312.00000000	435.00000000	334.00000000	0.47667608	0.00544623	0.21613497	0.00301723
2200000.00000000	11859.00000000	455.00000000	343.00000000	0.49205427	0.00551927	0.20938009	0.00288728
2000000.00000000	11242.00000000	452.00000000	355.00000000	0.46360675	0.00528981	0.22222794	0.00309950
1800000.00000000	9627.00000000	444.00000000	365.00000000	0.39899702	0.00480986	0.25821338	0.00373883
1600000.00000000	7545.00000000	457.00000000	343.00000000	0.31486041	0.00415650	0.32721284	0.00505444
1400000.00000000	5196.00000000	459.00000000	355.00000000	0.21743315	0.00332823	0.47383009	0.00818837
1200000.00000000	2851.00000000	455.00000000	349.00000000	0.11960398	0.00237017	0.86139585	0.01841544
1000000.00000000	1262.00000000	440.00000000	355.00000000	0.05200692	0.00150155	1.98101259	0.05936238
800000.00000000	498.00000000	442.00000000	341.00000000	0.02084205	0.00094364	4.94319696	0.22729153
600000.00000000	903.00000000	443.00000000	332.00000000	0.03730480	0.00126437	2.76174564	0.09618929
400000.00000000	2185.00000000	447.00000000	350.00000000	0.09053242	0.00202254	1.13800524	0.02701267
200000.00000000	4273.00000000	442.00000000	350.00000000	0.17759767	0.00294828	0.58011104	0.01069561
0.00000000	6690.00000000	454.00000000	345.00000000	0.27832092	0.00384727	0.37017113	0.00591600
