# BinNR microsec tot-time (s)  O-Beam AUX Ampl(V) f(Hz) phase(deg) chi(pos)
0 0.00 1200.00 108 165 1.270 10000.000 0.000 -0.758
1 3.00 1200.00 240 364 1.270 10000.000 0.000 -0.758
2 6.00 1200.00 233 399 1.270 10000.000 0.000 -0.758
3 9.00 1200.00 210 390 1.270 10000.000 0.000 -0.758
4 12.00 1200.00 220 362 1.270 10000.000 0.000 -0.758
5 15.00 1200.00 221 357 1.270 10000.000 0.000 -0.758
6 18.00 1200.00 220 398 1.270 10000.000 0.000 -0.758
7 21.00 1200.00 224 363 1.270 10000.000 0.000 -0.758
8 24.00 1200.00 245 331 1.270 10000.000 0.000 -0.758
9 27.00 1200.00 219 294 1.270 10000.000 0.000 -0.758
10 30.00 1200.00 234 282 1.270 10000.000 0.000 -0.758
11 33.00 1200.00 228 308 1.270 10000.000 0.000 -0.758
12 36.00 1200.00 239 300 1.270 10000.000 0.000 -0.758
13 39.00 1200.00 233 308 1.270 10000.000 0.000 -0.758
14 42.00 1200.00 182 370 1.270 10000.000 0.000 -0.758
15 45.00 1200.00 225 371 1.270 10000.000 0.000 -0.758
16 48.00 1200.00 185 406 1.270 10000.000 0.000 -0.758
17 51.00 1200.00 193 414 1.270 10000.000 0.000 -0.758
18 54.00 1200.00 207 477 1.270 10000.000 0.000 -0.758
19 57.00 1200.00 165 497 1.270 10000.000 0.000 -0.758
20 60.00 1200.00 170 561 1.270 10000.000 0.000 -0.758
21 63.00 1200.00 183 535 1.270 10000.000 0.000 -0.758
22 66.00 1200.00 147 563 1.270 10000.000 0.000 -0.758
23 69.00 1200.00 162 581 1.270 10000.000 0.000 -0.758
24 72.00 1200.00 144 650 1.270 10000.000 0.000 -0.758
25 75.00 1200.00 168 600 1.270 10000.000 0.000 -0.758
26 78.00 1200.00 162 571 1.270 10000.000 0.000 -0.758
27 81.00 1200.00 180 594 1.270 10000.000 0.000 -0.758
28 84.00 1200.00 209 596 1.270 10000.000 0.000 -0.758
29 87.00 1200.00 200 576 1.270 10000.000 0.000 -0.758
30 90.00 1200.00 234 568 1.270 10000.000 0.000 -0.758
31 93.00 1200.00 212 565 1.270 10000.000 0.000 -0.758
32 96.00 1200.00 214 547 1.270 10000.000 0.000 -0.758
33 99.00 1200.00 231 573 1.270 10000.000 0.000 -0.758
34 102.00 1200.00 218 479 1.270 10000.000 0.000 -0.758
35 105.00 1200.00 207 458 1.270 10000.000 0.000 -0.758
36 108.00 1200.00 258 403 1.270 10000.000 0.000 -0.758
37 111.00 1200.00 251 358 1.270 10000.000 0.000 -0.758
38 114.00 1200.00 234 290 1.270 10000.000 0.000 -0.758
39 117.00 1200.00 210 295 1.270 10000.000 0.000 -0.758
40 120.00 1200.00 267 295 1.270 10000.000 0.000 -0.758
41 123.00 1200.00 231 242 1.270 10000.000 0.000 -0.758
42 126.00 1200.00 238 216 1.270 10000.000 0.000 -0.758
43 129.00 1200.00 244 200 1.270 10000.000 0.000 -0.758
44 132.00 1200.00 247 212 1.270 10000.000 0.000 -0.758
45 135.00 1200.00 241 226 1.270 10000.000 0.000 -0.758
46 138.00 1200.00 223 238 1.270 10000.000 0.000 -0.758
47 141.00 1200.00 222 287 1.270 10000.000 0.000 -0.758
48 144.00 1200.00 225 334 1.270 10000.000 0.000 -0.758
49 147.00 1200.00 209 331 1.270 10000.000 0.000 -0.758
50 150.00 1200.00 204 403 1.270 10000.000 0.000 -0.758
51 153.00 1200.00 168 424 1.270 10000.000 0.000 -0.758
52 156.00 1200.00 185 411 1.270 10000.000 0.000 -0.758
53 159.00 1200.00 176 537 1.270 10000.000 0.000 -0.758
54 162.00 1200.00 145 561 1.270 10000.000 0.000 -0.758
55 165.00 1200.00 153 602 1.270 10000.000 0.000 -0.758
56 168.00 1200.00 165 649 1.270 10000.000 0.000 -0.758
57 171.00 1200.00 165 579 1.270 10000.000 0.000 -0.758
58 174.00 1200.00 162 595 1.270 10000.000 0.000 -0.758
59 177.00 1200.00 160 560 1.270 10000.000 0.000 -0.758
60 180.00 1200.00 189 591 1.270 10000.000 0.000 -0.758
61 183.00 1200.00 198 602 1.270 10000.000 0.000 -0.758
62 186.00 1200.00 200 577 1.270 10000.000 0.000 -0.758
63 189.00 1200.00 235 561 1.270 10000.000 0.000 -0.758
64 192.00 1200.00 224 571 1.270 10000.000 0.000 -0.758
65 195.00 1200.00 221 577 1.270 10000.000 0.000 -0.758
66 198.00 1200.00 238 545 1.270 10000.000 0.000 -0.758
67 201.00 1200.00 247 480 1.270 10000.000 0.000 -0.758
68 204.00 1200.00 234 490 1.270 10000.000 0.000 -0.758
69 207.00 1200.00 222 431 1.270 10000.000 0.000 -0.758
70 210.00 1200.00 236 385 1.270 10000.000 0.000 -0.758
71 213.00 1200.00 241 351 1.270 10000.000 0.000 -0.758
72 216.00 1200.00 217 306 1.270 10000.000 0.000 -0.758
73 219.00 1200.00 224 215 1.270 10000.000 0.000 -0.758
74 222.00 1200.00 217 259 1.270 10000.000 0.000 -0.758
75 225.00 1200.00 227 223 1.270 10000.000 0.000 -0.758
76 228.00 1200.00 240 224 1.270 10000.000 0.000 -0.758
77 231.00 1200.00 218 190 1.270 10000.000 0.000 -0.758
78 234.00 1200.00 251 224 1.270 10000.000 0.000 -0.758
79 237.00 1200.00 224 208 1.270 10000.000 0.000 -0.758
80 240.00 1200.00 218 250 1.270 10000.000 0.000 -0.758
81 243.00 1200.00 210 277 1.270 10000.000 0.000 -0.758
82 246.00 1200.00 215 379 1.270 10000.000 0.000 -0.758
83 249.00 1200.00 203 343 1.270 10000.000 0.000 -0.758
84 252.00 1200.00 238 428 1.270 10000.000 0.000 -0.758
85 255.00 1200.00 204 473 1.270 10000.000 0.000 -0.758
86 258.00 1200.00 200 522 1.270 10000.000 0.000 -0.758
87 261.00 1200.00 186 566 1.270 10000.000 0.000 -0.758
88 264.00 1200.00 212 576 1.270 10000.000 0.000 -0.758
89 267.00 1200.00 207 581 1.270 10000.000 0.000 -0.758
90 270.00 1200.00 214 540 1.270 10000.000 0.000 -0.758
91 273.00 1200.00 209 604 1.270 10000.000 0.000 -0.758
92 276.00 1200.00 212 654 1.270 10000.000 0.000 -0.758
93 279.00 1200.00 199 594 1.270 10000.000 0.000 -0.758
94 282.00 1200.00 212 586 1.270 10000.000 0.000 -0.758
95 285.00 1200.00 191 601 1.270 10000.000 0.000 -0.758
96 288.00 1200.00 234 606 1.270 10000.000 0.000 -0.758
97 291.00 1200.00 211 540 1.270 10000.000 0.000 -0.758
98 294.00 1200.00 198 562 1.270 10000.000 0.000 -0.758
99 297.00 1200.00 175 568 1.270 10000.000 0.000 -0.758
100 300.00 1200.00 182 531 1.270 10000.000 0.000 -0.758
101 303.00 1200.00 199 470 1.270 10000.000 0.000 -0.758
102 306.00 1200.00 216 446 1.270 10000.000 0.000 -0.758
103 309.00 1200.00 182 410 1.270 10000.000 0.000 -0.758
104 312.00 1200.00 222 343 1.270 10000.000 0.000 -0.758
105 315.00 1200.00 201 317 1.270 10000.000 0.000 -0.758
106 318.00 1200.00 185 292 1.270 10000.000 0.000 -0.758
107 321.00 1200.00 179 241 1.270 10000.000 0.000 -0.758
108 324.00 1200.00 221 209 1.270 10000.000 0.000 -0.758
109 327.00 1200.00 255 240 1.270 10000.000 0.000 -0.758
110 330.00 1200.00 246 206 1.270 10000.000 0.000 -0.758
111 333.00 1200.00 239 222 1.270 10000.000 0.000 -0.758
112 336.00 1200.00 240 238 1.270 10000.000 0.000 -0.758
113 339.00 1200.00 207 243 1.270 10000.000 0.000 -0.758
114 342.00 1200.00 244 288 1.270 10000.000 0.000 -0.758
115 345.00 1200.00 227 302 1.270 10000.000 0.000 -0.758
116 348.00 1200.00 242 400 1.270 10000.000 0.000 -0.758
117 351.00 1200.00 258 352 1.270 10000.000 0.000 -0.758
118 354.00 1200.00 251 459 1.270 10000.000 0.000 -0.758
119 357.00 1200.00 243 473 1.270 10000.000 0.000 -0.758
120 360.00 1200.00 235 527 1.270 10000.000 0.000 -0.758
121 363.00 1200.00 245 546 1.270 10000.000 0.000 -0.758
122 366.00 1200.00 216 610 1.270 10000.000 0.000 -0.758
123 369.00 1200.00 237 568 1.270 10000.000 0.000 -0.758
124 372.00 1200.00 218 613 1.270 10000.000 0.000 -0.758
125 375.00 1200.00 224 593 1.270 10000.000 0.000 -0.758
126 378.00 1200.00 233 627 1.270 10000.000 0.000 -0.758
127 381.00 1200.00 206 611 1.270 10000.000 0.000 -0.758
128 384.00 1200.00 201 587 1.270 10000.000 0.000 -0.758
129 387.00 1200.00 199 592 1.270 10000.000 0.000 -0.758
130 390.00 1200.00 187 571 1.270 10000.000 0.000 -0.758
131 393.00 1200.00 166 585 1.270 10000.000 0.000 -0.758
132 396.00 1200.00 174 553 1.270 10000.000 0.000 -0.758
133 399.00 1200.00 152 513 1.270 10000.000 0.000 -0.758
134 402.00 1200.00 164 498 1.270 10000.000 0.000 -0.758
135 405.00 1200.00 171 463 1.270 10000.000 0.000 -0.758
136 408.00 1200.00 162 436 1.270 10000.000 0.000 -0.758
137 411.00 1200.00 182 415 1.270 10000.000 0.000 -0.758
138 414.00 1200.00 188 379 1.270 10000.000 0.000 -0.758
139 417.00 1200.00 210 337 1.270 10000.000 0.000 -0.758
140 420.00 1200.00 194 344 1.270 10000.000 0.000 -0.758
141 423.00 1200.00 190 351 1.270 10000.000 0.000 -0.758
