# BinNR microsec tot-time (s)  O-Beam AUX Ampl(V) f(Hz) phase(deg) chi(pos)
0 0.00 1500.03 232 819 2.050 10000.000 0.000 -0.330
1 3.00 1500.03 478 1528 2.050 10000.000 0.000 -0.330
2 6.00 1500.03 475 1542 2.050 10000.000 0.000 -0.330
3 9.00 1500.03 428 1551 2.050 10000.000 0.000 -0.330
4 12.00 1500.03 460 1423 2.050 10000.000 0.000 -0.330
5 15.00 1500.03 458 1418 2.050 10000.000 0.000 -0.330
6 18.00 1500.03 441 1471 2.050 10000.000 0.000 -0.330
7 21.00 1500.03 425 1331 2.050 10000.000 0.000 -0.330
8 24.00 1500.03 434 1279 2.050 10000.000 0.000 -0.330
9 27.00 1500.03 446 1199 2.050 10000.000 0.000 -0.330
10 30.00 1500.03 454 1153 2.050 10000.000 0.000 -0.330
11 33.00 1500.03 415 1110 2.050 10000.000 0.000 -0.330
12 36.00 1500.03 434 1073 2.050 10000.000 0.000 -0.330
13 39.00 1500.03 408 1085 2.050 10000.000 0.000 -0.330
14 42.00 1500.03 388 1063 2.050 10000.000 0.000 -0.330
15 45.00 1500.03 415 1063 2.050 10000.000 0.000 -0.330
16 48.00 1500.03 390 1119 2.050 10000.000 0.000 -0.330
17 51.00 1500.03 420 1133 2.050 10000.000 0.000 -0.330
18 54.00 1500.03 447 1078 2.050 10000.000 0.000 -0.330
19 57.00 1500.03 415 1101 2.050 10000.000 0.000 -0.330
20 60.00 1500.03 435 1129 2.050 10000.000 0.000 -0.330
21 63.00 1500.03 471 1193 2.050 10000.000 0.000 -0.330
22 66.00 1500.03 477 1272 2.050 10000.000 0.000 -0.330
23 69.00 1500.03 514 1311 2.050 10000.000 0.000 -0.330
24 72.00 1500.03 500 1420 2.050 10000.000 0.000 -0.330
25 75.00 1500.03 478 1411 2.050 10000.000 0.000 -0.330
26 78.00 1500.03 527 1471 2.050 10000.000 0.000 -0.330
27 81.00 1500.03 470 1550 2.050 10000.000 0.000 -0.330
28 84.00 1500.03 535 1547 2.050 10000.000 0.000 -0.330
29 87.00 1500.03 490 1566 2.050 10000.000 0.000 -0.330
30 90.00 1500.03 489 1535 2.050 10000.000 0.000 -0.330
31 93.00 1500.03 447 1508 2.050 10000.000 0.000 -0.330
32 96.00 1500.03 482 1555 2.050 10000.000 0.000 -0.330
33 99.00 1500.03 491 1500 2.050 10000.000 0.000 -0.330
34 102.00 1500.03 483 1574 2.050 10000.000 0.000 -0.330
35 105.00 1500.03 456 1539 2.050 10000.000 0.000 -0.330
36 108.00 1500.03 465 1553 2.050 10000.000 0.000 -0.330
37 111.00 1500.03 438 1508 2.050 10000.000 0.000 -0.330
38 114.00 1500.03 449 1485 2.050 10000.000 0.000 -0.330
39 117.00 1500.03 495 1443 2.050 10000.000 0.000 -0.330
40 120.00 1500.03 435 1449 2.050 10000.000 0.000 -0.330
41 123.00 1500.03 464 1304 2.050 10000.000 0.000 -0.330
42 126.00 1500.03 455 1418 2.050 10000.000 0.000 -0.330
43 129.00 1500.03 393 1219 2.050 10000.000 0.000 -0.330
44 132.00 1500.03 425 1134 2.050 10000.000 0.000 -0.330
45 135.00 1500.03 432 1038 2.050 10000.000 0.000 -0.330
46 138.00 1500.03 402 1067 2.050 10000.000 0.000 -0.330
47 141.00 1500.03 442 994 2.050 10000.000 0.000 -0.330
48 144.00 1500.03 404 990 2.050 10000.000 0.000 -0.330
49 147.00 1500.03 440 995 2.050 10000.000 0.000 -0.330
50 150.00 1500.03 416 1026 2.050 10000.000 0.000 -0.330
51 153.00 1500.03 450 1024 2.050 10000.000 0.000 -0.330
52 156.00 1500.03 448 1020 2.050 10000.000 0.000 -0.330
53 159.00 1500.03 428 1157 2.050 10000.000 0.000 -0.330
54 162.00 1500.03 466 1200 2.050 10000.000 0.000 -0.330
55 165.00 1500.03 470 1248 2.050 10000.000 0.000 -0.330
56 168.00 1500.03 496 1354 2.050 10000.000 0.000 -0.330
57 171.00 1500.03 476 1334 2.050 10000.000 0.000 -0.330
58 174.00 1500.03 491 1488 2.050 10000.000 0.000 -0.330
59 177.00 1500.03 516 1470 2.050 10000.000 0.000 -0.330
60 180.00 1500.03 482 1575 2.050 10000.000 0.000 -0.330
61 183.00 1500.03 501 1512 2.050 10000.000 0.000 -0.330
62 186.00 1500.03 486 1556 2.050 10000.000 0.000 -0.330
63 189.00 1500.03 475 1581 2.050 10000.000 0.000 -0.330
64 192.00 1500.03 480 1566 2.050 10000.000 0.000 -0.330
65 195.00 1500.03 490 1597 2.050 10000.000 0.000 -0.330
66 198.00 1500.03 472 1568 2.050 10000.000 0.000 -0.330
67 201.00 1500.03 483 1488 2.050 10000.000 0.000 -0.330
68 204.00 1500.03 474 1541 2.050 10000.000 0.000 -0.330
69 207.00 1500.03 476 1459 2.050 10000.000 0.000 -0.330
70 210.00 1500.03 470 1525 2.050 10000.000 0.000 -0.330
71 213.00 1500.03 474 1548 2.050 10000.000 0.000 -0.330
72 216.00 1500.03 432 1545 2.050 10000.000 0.000 -0.330
73 219.00 1500.03 463 1379 2.050 10000.000 0.000 -0.330
74 222.00 1500.03 439 1362 2.050 10000.000 0.000 -0.330
75 225.00 1500.03 378 1324 2.050 10000.000 0.000 -0.330
76 228.00 1500.03 426 1332 2.050 10000.000 0.000 -0.330
77 231.00 1500.03 409 1149 2.050 10000.000 0.000 -0.330
78 234.00 1500.03 430 1155 2.050 10000.000 0.000 -0.330
79 237.00 1500.03 425 1051 2.050 10000.000 0.000 -0.330
80 240.00 1500.03 417 1064 2.050 10000.000 0.000 -0.330
81 243.00 1500.03 429 999 2.050 10000.000 0.000 -0.330
82 246.00 1500.03 418 973 2.050 10000.000 0.000 -0.330
83 249.00 1500.03 427 956 2.050 10000.000 0.000 -0.330
84 252.00 1500.03 387 1007 2.050 10000.000 0.000 -0.330
85 255.00 1500.03 421 1059 2.050 10000.000 0.000 -0.330
86 258.00 1500.03 426 1127 2.050 10000.000 0.000 -0.330
87 261.00 1500.03 453 1179 2.050 10000.000 0.000 -0.330
88 264.00 1500.03 483 1255 2.050 10000.000 0.000 -0.330
89 267.00 1500.03 461 1251 2.050 10000.000 0.000 -0.330
90 270.00 1500.03 467 1383 2.050 10000.000 0.000 -0.330
91 273.00 1500.03 519 1407 2.050 10000.000 0.000 -0.330
92 276.00 1500.03 494 1478 2.050 10000.000 0.000 -0.330
93 279.00 1500.03 487 1422 2.050 10000.000 0.000 -0.330
94 282.00 1500.03 493 1506 2.050 10000.000 0.000 -0.330
95 285.00 1500.03 483 1514 2.050 10000.000 0.000 -0.330
96 288.00 1500.03 471 1523 2.050 10000.000 0.000 -0.330
97 291.00 1500.03 474 1558 2.050 10000.000 0.000 -0.330
98 294.00 1500.03 522 1631 2.050 10000.000 0.000 -0.330
99 297.00 1500.03 483 1548 2.050 10000.000 0.000 -0.330
100 300.00 1500.03 460 1585 2.050 10000.000 0.000 -0.330
101 303.00 1500.03 478 1545 2.050 10000.000 0.000 -0.330
102 306.00 1500.03 505 1598 2.050 10000.000 0.000 -0.330
103 309.00 1500.03 480 1533 2.050 10000.000 0.000 -0.330
104 312.00 1500.03 475 1534 2.050 10000.000 0.000 -0.330
105 315.00 1500.03 473 1492 2.050 10000.000 0.000 -0.330
106 318.00 1500.03 463 1405 2.050 10000.000 0.000 -0.330
107 321.00 1500.03 418 1371 2.050 10000.000 0.000 -0.330
108 324.00 1500.03 453 1293 2.050 10000.000 0.000 -0.330
109 327.00 1500.03 441 1239 2.050 10000.000 0.000 -0.330
110 330.00 1500.03 459 1193 2.050 10000.000 0.000 -0.330
111 333.00 1500.03 477 1149 2.050 10000.000 0.000 -0.330
112 336.00 1500.03 401 1104 2.050 10000.000 0.000 -0.330
113 339.00 1500.03 442 1005 2.050 10000.000 0.000 -0.330
114 342.00 1500.03 433 974 2.050 10000.000 0.000 -0.330
115 345.00 1500.03 421 950 2.050 10000.000 0.000 -0.330
116 348.00 1500.03 428 1011 2.050 10000.000 0.000 -0.330
117 351.00 1500.03 429 1010 2.050 10000.000 0.000 -0.330
118 354.00 1500.03 452 1011 2.050 10000.000 0.000 -0.330
119 357.00 1500.03 419 1026 2.050 10000.000 0.000 -0.330
120 360.00 1500.03 475 1075 2.050 10000.000 0.000 -0.330
121 363.00 1500.03 442 1173 2.050 10000.000 0.000 -0.330
122 366.00 1500.03 478 1310 2.050 10000.000 0.000 -0.330
123 369.00 1500.03 457 1248 2.050 10000.000 0.000 -0.330
124 372.00 1500.03 487 1363 2.050 10000.000 0.000 -0.330
125 375.00 1500.03 505 1374 2.050 10000.000 0.000 -0.330
126 378.00 1500.03 483 1459 2.050 10000.000 0.000 -0.330
127 381.00 1500.03 436 1547 2.050 10000.000 0.000 -0.330
128 384.00 1500.03 533 1571 2.050 10000.000 0.000 -0.330
129 387.00 1500.03 485 1524 2.050 10000.000 0.000 -0.330
130 390.00 1500.03 478 1491 2.050 10000.000 0.000 -0.330
131 393.00 1500.03 504 1555 2.050 10000.000 0.000 -0.330
132 396.00 1500.03 520 1563 2.050 10000.000 0.000 -0.330
133 399.00 1500.03 459 1539 2.050 10000.000 0.000 -0.330
134 402.00 1500.03 482 1566 2.050 10000.000 0.000 -0.330
