# BinNR microsec tot-time (s)  O-Beam AUX Ampl(V) f(Hz) phase(deg) chi(pos)
0 0.00 1500.00 150 429 2.050 10000.000 0.000 1.154
1 3.00 1500.00 272 893 2.050 10000.000 0.000 1.154
2 6.00 1500.00 319 986 2.050 10000.000 0.000 1.154
3 9.00 1500.00 327 1054 2.050 10000.000 0.000 1.154
4 12.00 1500.00 326 1122 2.050 10000.000 0.000 1.154
5 15.00 1500.00 340 1262 2.050 10000.000 0.000 1.154
6 18.00 1500.00 397 1312 2.050 10000.000 0.000 1.154
7 21.00 1500.00 357 1341 2.050 10000.000 0.000 1.154
8 24.00 1500.00 377 1377 2.050 10000.000 0.000 1.154
9 27.00 1500.00 398 1449 2.050 10000.000 0.000 1.154
10 30.00 1500.00 460 1426 2.050 10000.000 0.000 1.154
11 33.00 1500.00 436 1478 2.050 10000.000 0.000 1.154
12 36.00 1500.00 460 1529 2.050 10000.000 0.000 1.154
13 39.00 1500.00 445 1457 2.050 10000.000 0.000 1.154
14 42.00 1500.00 451 1468 2.050 10000.000 0.000 1.154
15 45.00 1500.00 457 1409 2.050 10000.000 0.000 1.154
16 48.00 1500.00 461 1482 2.050 10000.000 0.000 1.154
17 51.00 1500.00 457 1505 2.050 10000.000 0.000 1.154
18 54.00 1500.00 451 1471 2.050 10000.000 0.000 1.154
19 57.00 1500.00 435 1440 2.050 10000.000 0.000 1.154
20 60.00 1500.00 450 1448 2.050 10000.000 0.000 1.154
21 63.00 1500.00 412 1351 2.050 10000.000 0.000 1.154
22 66.00 1500.00 389 1288 2.050 10000.000 0.000 1.154
23 69.00 1500.00 384 1302 2.050 10000.000 0.000 1.154
24 72.00 1500.00 373 1300 2.050 10000.000 0.000 1.154
25 75.00 1500.00 361 1152 2.050 10000.000 0.000 1.154
26 78.00 1500.00 336 1143 2.050 10000.000 0.000 1.154
27 81.00 1500.00 298 1024 2.050 10000.000 0.000 1.154
28 84.00 1500.00 310 1023 2.050 10000.000 0.000 1.154
29 87.00 1500.00 268 930 2.050 10000.000 0.000 1.154
30 90.00 1500.00 274 886 2.050 10000.000 0.000 1.154
31 93.00 1500.00 298 830 2.050 10000.000 0.000 1.154
32 96.00 1500.00 281 802 2.050 10000.000 0.000 1.154
33 99.00 1500.00 272 817 2.050 10000.000 0.000 1.154
34 102.00 1500.00 286 857 2.050 10000.000 0.000 1.154
35 105.00 1500.00 305 920 2.050 10000.000 0.000 1.154
36 108.00 1500.00 285 993 2.050 10000.000 0.000 1.154
37 111.00 1500.00 335 958 2.050 10000.000 0.000 1.154
38 114.00 1500.00 355 1075 2.050 10000.000 0.000 1.154
39 117.00 1500.00 381 1121 2.050 10000.000 0.000 1.154
40 120.00 1500.00 365 1185 2.050 10000.000 0.000 1.154
41 123.00 1500.00 393 1276 2.050 10000.000 0.000 1.154
42 126.00 1500.00 386 1434 2.050 10000.000 0.000 1.154
43 129.00 1500.00 422 1456 2.050 10000.000 0.000 1.154
44 132.00 1500.00 386 1467 2.050 10000.000 0.000 1.154
45 135.00 1500.00 443 1491 2.050 10000.000 0.000 1.154
46 138.00 1500.00 464 1493 2.050 10000.000 0.000 1.154
47 141.00 1500.00 453 1513 2.050 10000.000 0.000 1.154
48 144.00 1500.00 488 1590 2.050 10000.000 0.000 1.154
49 147.00 1500.00 438 1440 2.050 10000.000 0.000 1.154
50 150.00 1500.00 451 1539 2.050 10000.000 0.000 1.154
51 153.00 1500.00 444 1488 2.050 10000.000 0.000 1.154
52 156.00 1500.00 438 1506 2.050 10000.000 0.000 1.154
53 159.00 1500.00 435 1412 2.050 10000.000 0.000 1.154
54 162.00 1500.00 418 1426 2.050 10000.000 0.000 1.154
55 165.00 1500.00 388 1472 2.050 10000.000 0.000 1.154
56 168.00 1500.00 365 1352 2.050 10000.000 0.000 1.154
57 171.00 1500.00 360 1230 2.050 10000.000 0.000 1.154
58 174.00 1500.00 374 1205 2.050 10000.000 0.000 1.154
59 177.00 1500.00 326 1120 2.050 10000.000 0.000 1.154
60 180.00 1500.00 292 1046 2.050 10000.000 0.000 1.154
61 183.00 1500.00 304 969 2.050 10000.000 0.000 1.154
62 186.00 1500.00 271 944 2.050 10000.000 0.000 1.154
63 189.00 1500.00 265 902 2.050 10000.000 0.000 1.154
64 192.00 1500.00 245 870 2.050 10000.000 0.000 1.154
65 195.00 1500.00 287 821 2.050 10000.000 0.000 1.154
66 198.00 1500.00 295 805 2.050 10000.000 0.000 1.154
67 201.00 1500.00 281 824 2.050 10000.000 0.000 1.154
68 204.00 1500.00 293 846 2.050 10000.000 0.000 1.154
69 207.00 1500.00 303 922 2.050 10000.000 0.000 1.154
70 210.00 1500.00 337 996 2.050 10000.000 0.000 1.154
71 213.00 1500.00 311 1032 2.050 10000.000 0.000 1.154
72 216.00 1500.00 368 1111 2.050 10000.000 0.000 1.154
73 219.00 1500.00 357 1182 2.050 10000.000 0.000 1.154
74 222.00 1500.00 403 1298 2.050 10000.000 0.000 1.154
75 225.00 1500.00 400 1296 2.050 10000.000 0.000 1.154
76 228.00 1500.00 450 1474 2.050 10000.000 0.000 1.154
77 231.00 1500.00 393 1460 2.050 10000.000 0.000 1.154
78 234.00 1500.00 426 1473 2.050 10000.000 0.000 1.154
79 237.00 1500.00 463 1523 2.050 10000.000 0.000 1.154
80 240.00 1500.00 449 1551 2.050 10000.000 0.000 1.154
81 243.00 1500.00 422 1535 2.050 10000.000 0.000 1.154
82 246.00 1500.00 424 1553 2.050 10000.000 0.000 1.154
83 249.00 1500.00 473 1476 2.050 10000.000 0.000 1.154
84 252.00 1500.00 463 1567 2.050 10000.000 0.000 1.154
85 255.00 1500.00 419 1515 2.050 10000.000 0.000 1.154
86 258.00 1500.00 453 1506 2.050 10000.000 0.000 1.154
87 261.00 1500.00 385 1443 2.050 10000.000 0.000 1.154
88 264.00 1500.00 387 1404 2.050 10000.000 0.000 1.154
89 267.00 1500.00 398 1290 2.050 10000.000 0.000 1.154
90 270.00 1500.00 366 1337 2.050 10000.000 0.000 1.154
91 273.00 1500.00 320 1231 2.050 10000.000 0.000 1.154
92 276.00 1500.00 317 1194 2.050 10000.000 0.000 1.154
93 279.00 1500.00 299 1088 2.050 10000.000 0.000 1.154
94 282.00 1500.00 318 1065 2.050 10000.000 0.000 1.154
95 285.00 1500.00 292 977 2.050 10000.000 0.000 1.154
96 288.00 1500.00 293 907 2.050 10000.000 0.000 1.154
97 291.00 1500.00 273 836 2.050 10000.000 0.000 1.154
98 294.00 1500.00 274 844 2.050 10000.000 0.000 1.154
99 297.00 1500.00 282 890 2.050 10000.000 0.000 1.154
100 300.00 1500.00 307 832 2.050 10000.000 0.000 1.154
101 303.00 1500.00 284 797 2.050 10000.000 0.000 1.154
102 306.00 1500.00 303 904 2.050 10000.000 0.000 1.154
103 309.00 1500.00 301 962 2.050 10000.000 0.000 1.154
104 312.00 1500.00 302 997 2.050 10000.000 0.000 1.154
105 315.00 1500.00 353 1179 2.050 10000.000 0.000 1.154
106 318.00 1500.00 363 1184 2.050 10000.000 0.000 1.154
107 321.00 1500.00 357 1283 2.050 10000.000 0.000 1.154
108 324.00 1500.00 408 1364 2.050 10000.000 0.000 1.154
109 327.00 1500.00 434 1405 2.050 10000.000 0.000 1.154
110 330.00 1500.00 470 1426 2.050 10000.000 0.000 1.154
111 333.00 1500.00 388 1468 2.050 10000.000 0.000 1.154
112 336.00 1500.00 453 1546 2.050 10000.000 0.000 1.154
113 339.00 1500.00 438 1498 2.050 10000.000 0.000 1.154
114 342.00 1500.00 454 1519 2.050 10000.000 0.000 1.154
115 345.00 1500.00 419 1553 2.050 10000.000 0.000 1.154
116 348.00 1500.00 460 1532 2.050 10000.000 0.000 1.154
117 351.00 1500.00 466 1469 2.050 10000.000 0.000 1.154
118 354.00 1500.00 460 1481 2.050 10000.000 0.000 1.154
119 357.00 1500.00 429 1486 2.050 10000.000 0.000 1.154
120 360.00 1500.00 436 1478 2.050 10000.000 0.000 1.154
121 363.00 1500.00 412 1387 2.050 10000.000 0.000 1.154
122 366.00 1500.00 396 1367 2.050 10000.000 0.000 1.154
123 369.00 1500.00 383 1262 2.050 10000.000 0.000 1.154
124 372.00 1500.00 391 1315 2.050 10000.000 0.000 1.154
125 375.00 1500.00 361 1187 2.050 10000.000 0.000 1.154
126 378.00 1500.00 337 1130 2.050 10000.000 0.000 1.154
127 381.00 1500.00 322 1062 2.050 10000.000 0.000 1.154
128 384.00 1500.00 302 1011 2.050 10000.000 0.000 1.154
129 387.00 1500.00 290 891 2.050 10000.000 0.000 1.154
130 390.00 1500.00 282 849 2.050 10000.000 0.000 1.154
131 393.00 1500.00 278 838 2.050 10000.000 0.000 1.154
132 396.00 1500.00 280 849 2.050 10000.000 0.000 1.154
133 399.00 1500.00 275 803 2.050 10000.000 0.000 1.154
134 402.00 1500.00 250 859 2.050 10000.000 0.000 1.154
