# BinNR microsec tot-time (s)  O-Beam AUX Ampl(V) f(Hz) phase(deg) chi(pos)
0 0.00 1500.00 92 99 2.050 10000.000 0.000 -1.340
1 3.00 1500.00 150 189 2.050 10000.000 0.000 -1.340
2 6.00 1500.00 198 191 2.050 10000.000 0.000 -1.340
3 9.00 1500.00 170 198 2.050 10000.000 0.000 -1.340
4 12.00 1500.00 184 218 2.050 10000.000 0.000 -1.340
5 15.00 1500.00 168 238 2.050 10000.000 0.000 -1.340
6 18.00 1500.00 175 257 2.050 10000.000 0.000 -1.340
7 21.00 1500.00 162 353 2.050 10000.000 0.000 -1.340
8 24.00 1500.00 184 406 2.050 10000.000 0.000 -1.340
9 27.00 1500.00 184 468 2.050 10000.000 0.000 -1.340
10 30.00 1500.00 178 534 2.050 10000.000 0.000 -1.340
11 33.00 1500.00 206 584 2.050 10000.000 0.000 -1.340
12 36.00 1500.00 207 546 2.050 10000.000 0.000 -1.340
13 39.00 1500.00 199 547 2.050 10000.000 0.000 -1.340
14 42.00 1500.00 188 582 2.050 10000.000 0.000 -1.340
15 45.00 1500.00 207 564 2.050 10000.000 0.000 -1.340
16 48.00 1500.00 218 524 2.050 10000.000 0.000 -1.340
17 51.00 1500.00 181 532 2.050 10000.000 0.000 -1.340
18 54.00 1500.00 169 547 2.050 10000.000 0.000 -1.340
19 57.00 1500.00 166 465 2.050 10000.000 0.000 -1.340
20 60.00 1500.00 173 494 2.050 10000.000 0.000 -1.340
21 63.00 1500.00 167 425 2.050 10000.000 0.000 -1.340
22 66.00 1500.00 138 357 2.050 10000.000 0.000 -1.340
23 69.00 1500.00 133 362 2.050 10000.000 0.000 -1.340
24 72.00 1500.00 147 285 2.050 10000.000 0.000 -1.340
25 75.00 1500.00 163 237 2.050 10000.000 0.000 -1.340
26 78.00 1500.00 140 243 2.050 10000.000 0.000 -1.340
27 81.00 1500.00 165 190 2.050 10000.000 0.000 -1.340
28 84.00 1500.00 164 171 2.050 10000.000 0.000 -1.340
29 87.00 1500.00 151 185 2.050 10000.000 0.000 -1.340
30 90.00 1500.00 153 189 2.050 10000.000 0.000 -1.340
31 93.00 1500.00 168 215 2.050 10000.000 0.000 -1.340
32 96.00 1500.00 142 192 2.050 10000.000 0.000 -1.340
33 99.00 1500.00 161 178 2.050 10000.000 0.000 -1.340
34 102.00 1500.00 165 213 2.050 10000.000 0.000 -1.340
35 105.00 1500.00 170 182 2.050 10000.000 0.000 -1.340
36 108.00 1500.00 176 177 2.050 10000.000 0.000 -1.340
37 111.00 1500.00 160 177 2.050 10000.000 0.000 -1.340
38 114.00 1500.00 191 181 2.050 10000.000 0.000 -1.340
39 117.00 1500.00 186 238 2.050 10000.000 0.000 -1.340
40 120.00 1500.00 196 252 2.050 10000.000 0.000 -1.340
41 123.00 1500.00 183 284 2.050 10000.000 0.000 -1.340
42 126.00 1500.00 199 375 2.050 10000.000 0.000 -1.340
43 129.00 1500.00 174 435 2.050 10000.000 0.000 -1.340
44 132.00 1500.00 174 497 2.050 10000.000 0.000 -1.340
45 135.00 1500.00 201 524 2.050 10000.000 0.000 -1.340
46 138.00 1500.00 222 617 2.050 10000.000 0.000 -1.340
47 141.00 1500.00 220 562 2.050 10000.000 0.000 -1.340
48 144.00 1500.00 187 589 2.050 10000.000 0.000 -1.340
49 147.00 1500.00 201 649 2.050 10000.000 0.000 -1.340
50 150.00 1500.00 170 622 2.050 10000.000 0.000 -1.340
51 153.00 1500.00 178 574 2.050 10000.000 0.000 -1.340
52 156.00 1500.00 191 573 2.050 10000.000 0.000 -1.340
53 159.00 1500.00 184 521 2.050 10000.000 0.000 -1.340
54 162.00 1500.00 179 493 2.050 10000.000 0.000 -1.340
55 165.00 1500.00 155 374 2.050 10000.000 0.000 -1.340
56 168.00 1500.00 137 373 2.050 10000.000 0.000 -1.340
57 171.00 1500.00 143 297 2.050 10000.000 0.000 -1.340
58 174.00 1500.00 152 249 2.050 10000.000 0.000 -1.340
59 177.00 1500.00 125 230 2.050 10000.000 0.000 -1.340
60 180.00 1500.00 165 227 2.050 10000.000 0.000 -1.340
61 183.00 1500.00 145 202 2.050 10000.000 0.000 -1.340
62 186.00 1500.00 167 179 2.050 10000.000 0.000 -1.340
63 189.00 1500.00 167 200 2.050 10000.000 0.000 -1.340
64 192.00 1500.00 163 211 2.050 10000.000 0.000 -1.340
65 195.00 1500.00 156 210 2.050 10000.000 0.000 -1.340
66 198.00 1500.00 160 189 2.050 10000.000 0.000 -1.340
67 201.00 1500.00 190 205 2.050 10000.000 0.000 -1.340
68 204.00 1500.00 208 191 2.050 10000.000 0.000 -1.340
69 207.00 1500.00 184 179 2.050 10000.000 0.000 -1.340
70 210.00 1500.00 149 186 2.050 10000.000 0.000 -1.340
71 213.00 1500.00 159 195 2.050 10000.000 0.000 -1.340
72 216.00 1500.00 178 211 2.050 10000.000 0.000 -1.340
73 219.00 1500.00 183 246 2.050 10000.000 0.000 -1.340
74 222.00 1500.00 186 308 2.050 10000.000 0.000 -1.340
75 225.00 1500.00 181 328 2.050 10000.000 0.000 -1.340
76 228.00 1500.00 173 429 2.050 10000.000 0.000 -1.340
77 231.00 1500.00 186 426 2.050 10000.000 0.000 -1.340
78 234.00 1500.00 178 536 2.050 10000.000 0.000 -1.340
79 237.00 1500.00 190 528 2.050 10000.000 0.000 -1.340
80 240.00 1500.00 211 582 2.050 10000.000 0.000 -1.340
81 243.00 1500.00 203 699 2.050 10000.000 0.000 -1.340
82 246.00 1500.00 197 644 2.050 10000.000 0.000 -1.340
83 249.00 1500.00 185 592 2.050 10000.000 0.000 -1.340
84 252.00 1500.00 173 594 2.050 10000.000 0.000 -1.340
85 255.00 1500.00 163 568 2.050 10000.000 0.000 -1.340
86 258.00 1500.00 202 534 2.050 10000.000 0.000 -1.340
87 261.00 1500.00 167 456 2.050 10000.000 0.000 -1.340
88 264.00 1500.00 163 449 2.050 10000.000 0.000 -1.340
89 267.00 1500.00 154 362 2.050 10000.000 0.000 -1.340
90 270.00 1500.00 168 312 2.050 10000.000 0.000 -1.340
91 273.00 1500.00 151 260 2.050 10000.000 0.000 -1.340
92 276.00 1500.00 145 231 2.050 10000.000 0.000 -1.340
93 279.00 1500.00 162 200 2.050 10000.000 0.000 -1.340
94 282.00 1500.00 170 195 2.050 10000.000 0.000 -1.340
95 285.00 1500.00 150 184 2.050 10000.000 0.000 -1.340
96 288.00 1500.00 155 201 2.050 10000.000 0.000 -1.340
97 291.00 1500.00 150 188 2.050 10000.000 0.000 -1.340
98 294.00 1500.00 183 179 2.050 10000.000 0.000 -1.340
99 297.00 1500.00 170 197 2.050 10000.000 0.000 -1.340
100 300.00 1500.00 168 180 2.050 10000.000 0.000 -1.340
101 303.00 1500.00 176 173 2.050 10000.000 0.000 -1.340
102 306.00 1500.00 148 188 2.050 10000.000 0.000 -1.340
103 309.00 1500.00 210 188 2.050 10000.000 0.000 -1.340
104 312.00 1500.00 178 205 2.050 10000.000 0.000 -1.340
105 315.00 1500.00 178 201 2.050 10000.000 0.000 -1.340
106 318.00 1500.00 172 231 2.050 10000.000 0.000 -1.340
107 321.00 1500.00 177 262 2.050 10000.000 0.000 -1.340
108 324.00 1500.00 176 318 2.050 10000.000 0.000 -1.340
109 327.00 1500.00 203 352 2.050 10000.000 0.000 -1.340
110 330.00 1500.00 206 464 2.050 10000.000 0.000 -1.340
111 333.00 1500.00 185 468 2.050 10000.000 0.000 -1.340
112 336.00 1500.00 199 587 2.050 10000.000 0.000 -1.340
113 339.00 1500.00 205 551 2.050 10000.000 0.000 -1.340
114 342.00 1500.00 208 658 2.050 10000.000 0.000 -1.340
115 345.00 1500.00 212 618 2.050 10000.000 0.000 -1.340
116 348.00 1500.00 197 699 2.050 10000.000 0.000 -1.340
117 351.00 1500.00 181 578 2.050 10000.000 0.000 -1.340
118 354.00 1500.00 181 560 2.050 10000.000 0.000 -1.340
119 357.00 1500.00 187 563 2.050 10000.000 0.000 -1.340
120 360.00 1500.00 182 486 2.050 10000.000 0.000 -1.340
121 363.00 1500.00 185 459 2.050 10000.000 0.000 -1.340
122 366.00 1500.00 145 387 2.050 10000.000 0.000 -1.340
123 369.00 1500.00 164 334 2.050 10000.000 0.000 -1.340
124 372.00 1500.00 147 286 2.050 10000.000 0.000 -1.340
125 375.00 1500.00 145 246 2.050 10000.000 0.000 -1.340
126 378.00 1500.00 141 220 2.050 10000.000 0.000 -1.340
127 381.00 1500.00 132 176 2.050 10000.000 0.000 -1.340
128 384.00 1500.00 146 202 2.050 10000.000 0.000 -1.340
129 387.00 1500.00 165 170 2.050 10000.000 0.000 -1.340
130 390.00 1500.00 161 189 2.050 10000.000 0.000 -1.340
131 393.00 1500.00 176 195 2.050 10000.000 0.000 -1.340
132 396.00 1500.00 149 193 2.050 10000.000 0.000 -1.340
133 399.00 1500.00 146 205 2.050 10000.000 0.000 -1.340
134 402.00 1500.00 165 187 2.050 10000.000 0.000 -1.340
