# BinNR microsec tot-time (s)  O-Beam AUX Ampl(V) f(Hz) phase(deg) chi(pos)
0 0.00 1500.00 240 743 2.050 10000.000 0.000 1.505
1 3.00 1500.00 425 1480 2.050 10000.000 0.000 1.505
2 6.00 1500.00 408 1553 2.050 10000.000 0.000 1.505
3 9.00 1500.00 423 1490 2.050 10000.000 0.000 1.505
4 12.00 1500.00 438 1595 2.050 10000.000 0.000 1.505
5 15.00 1500.00 445 1546 2.050 10000.000 0.000 1.505
6 18.00 1500.00 496 1591 2.050 10000.000 0.000 1.505
7 21.00 1500.00 492 1517 2.050 10000.000 0.000 1.505
8 24.00 1500.00 475 1535 2.050 10000.000 0.000 1.505
9 27.00 1500.00 461 1469 2.050 10000.000 0.000 1.505
10 30.00 1500.00 495 1444 2.050 10000.000 0.000 1.505
11 33.00 1500.00 447 1402 2.050 10000.000 0.000 1.505
12 36.00 1500.00 517 1409 2.050 10000.000 0.000 1.505
13 39.00 1500.00 492 1386 2.050 10000.000 0.000 1.505
14 42.00 1500.00 519 1401 2.050 10000.000 0.000 1.505
15 45.00 1500.00 476 1335 2.050 10000.000 0.000 1.505
16 48.00 1500.00 493 1493 2.050 10000.000 0.000 1.505
17 51.00 1500.00 493 1369 2.050 10000.000 0.000 1.505
18 54.00 1500.00 521 1439 2.050 10000.000 0.000 1.505
19 57.00 1500.00 471 1461 2.050 10000.000 0.000 1.505
20 60.00 1500.00 501 1531 2.050 10000.000 0.000 1.505
21 63.00 1500.00 506 1483 2.050 10000.000 0.000 1.505
22 66.00 1500.00 479 1521 2.050 10000.000 0.000 1.505
23 69.00 1500.00 534 1528 2.050 10000.000 0.000 1.505
24 72.00 1500.00 508 1577 2.050 10000.000 0.000 1.505
25 75.00 1500.00 481 1482 2.050 10000.000 0.000 1.505
26 78.00 1500.00 514 1545 2.050 10000.000 0.000 1.505
27 81.00 1500.00 434 1507 2.050 10000.000 0.000 1.505
28 84.00 1500.00 467 1494 2.050 10000.000 0.000 1.505
29 87.00 1500.00 477 1410 2.050 10000.000 0.000 1.505
30 90.00 1500.00 447 1436 2.050 10000.000 0.000 1.505
31 93.00 1500.00 435 1413 2.050 10000.000 0.000 1.505
32 96.00 1500.00 457 1417 2.050 10000.000 0.000 1.505
33 99.00 1500.00 411 1431 2.050 10000.000 0.000 1.505
34 102.00 1500.00 428 1437 2.050 10000.000 0.000 1.505
35 105.00 1500.00 451 1416 2.050 10000.000 0.000 1.505
36 108.00 1500.00 446 1519 2.050 10000.000 0.000 1.505
37 111.00 1500.00 444 1460 2.050 10000.000 0.000 1.505
38 114.00 1500.00 496 1560 2.050 10000.000 0.000 1.505
39 117.00 1500.00 491 1468 2.050 10000.000 0.000 1.505
40 120.00 1500.00 482 1558 2.050 10000.000 0.000 1.505
41 123.00 1500.00 463 1517 2.050 10000.000 0.000 1.505
42 126.00 1500.00 434 1566 2.050 10000.000 0.000 1.505
43 129.00 1500.00 462 1407 2.050 10000.000 0.000 1.505
44 132.00 1500.00 457 1498 2.050 10000.000 0.000 1.505
45 135.00 1500.00 489 1442 2.050 10000.000 0.000 1.505
46 138.00 1500.00 474 1381 2.050 10000.000 0.000 1.505
47 141.00 1500.00 464 1382 2.050 10000.000 0.000 1.505
48 144.00 1500.00 451 1347 2.050 10000.000 0.000 1.505
49 147.00 1500.00 514 1338 2.050 10000.000 0.000 1.505
50 150.00 1500.00 489 1339 2.050 10000.000 0.000 1.505
51 153.00 1500.00 538 1377 2.050 10000.000 0.000 1.505
52 156.00 1500.00 500 1399 2.050 10000.000 0.000 1.505
53 159.00 1500.00 461 1452 2.050 10000.000 0.000 1.505
54 162.00 1500.00 514 1491 2.050 10000.000 0.000 1.505
55 165.00 1500.00 517 1532 2.050 10000.000 0.000 1.505
56 168.00 1500.00 497 1561 2.050 10000.000 0.000 1.505
57 171.00 1500.00 472 1548 2.050 10000.000 0.000 1.505
58 174.00 1500.00 466 1574 2.050 10000.000 0.000 1.505
59 177.00 1500.00 464 1507 2.050 10000.000 0.000 1.505
60 180.00 1500.00 472 1570 2.050 10000.000 0.000 1.505
61 183.00 1500.00 448 1491 2.050 10000.000 0.000 1.505
62 186.00 1500.00 450 1402 2.050 10000.000 0.000 1.505
63 189.00 1500.00 466 1388 2.050 10000.000 0.000 1.505
64 192.00 1500.00 484 1521 2.050 10000.000 0.000 1.505
65 195.00 1500.00 430 1400 2.050 10000.000 0.000 1.505
66 198.00 1500.00 456 1430 2.050 10000.000 0.000 1.505
67 201.00 1500.00 403 1442 2.050 10000.000 0.000 1.505
68 204.00 1500.00 502 1455 2.050 10000.000 0.000 1.505
69 207.00 1500.00 448 1393 2.050 10000.000 0.000 1.505
70 210.00 1500.00 464 1467 2.050 10000.000 0.000 1.505
71 213.00 1500.00 440 1479 2.050 10000.000 0.000 1.505
72 216.00 1500.00 454 1530 2.050 10000.000 0.000 1.505
73 219.00 1500.00 455 1478 2.050 10000.000 0.000 1.505
74 222.00 1500.00 508 1523 2.050 10000.000 0.000 1.505
75 225.00 1500.00 472 1500 2.050 10000.000 0.000 1.505
76 228.00 1500.00 441 1513 2.050 10000.000 0.000 1.505
77 231.00 1500.00 452 1464 2.050 10000.000 0.000 1.505
78 234.00 1500.00 477 1428 2.050 10000.000 0.000 1.505
79 237.00 1500.00 480 1366 2.050 10000.000 0.000 1.505
80 240.00 1500.00 502 1330 2.050 10000.000 0.000 1.505
81 243.00 1500.00 497 1336 2.050 10000.000 0.000 1.505
82 246.00 1500.00 503 1419 2.050 10000.000 0.000 1.505
83 249.00 1500.00 488 1316 2.050 10000.000 0.000 1.505
84 252.00 1500.00 472 1350 2.050 10000.000 0.000 1.505
85 255.00 1500.00 495 1369 2.050 10000.000 0.000 1.505
86 258.00 1500.00 488 1423 2.050 10000.000 0.000 1.505
87 261.00 1500.00 482 1406 2.050 10000.000 0.000 1.505
88 264.00 1500.00 495 1537 2.050 10000.000 0.000 1.505
89 267.00 1500.00 483 1478 2.050 10000.000 0.000 1.505
90 270.00 1500.00 493 1608 2.050 10000.000 0.000 1.505
91 273.00 1500.00 460 1516 2.050 10000.000 0.000 1.505
92 276.00 1500.00 506 1647 2.050 10000.000 0.000 1.505
93 279.00 1500.00 480 1469 2.050 10000.000 0.000 1.505
94 282.00 1500.00 494 1483 2.050 10000.000 0.000 1.505
95 285.00 1500.00 450 1436 2.050 10000.000 0.000 1.505
96 288.00 1500.00 407 1449 2.050 10000.000 0.000 1.505
97 291.00 1500.00 447 1483 2.050 10000.000 0.000 1.505
98 294.00 1500.00 448 1404 2.050 10000.000 0.000 1.505
99 297.00 1500.00 426 1448 2.050 10000.000 0.000 1.505
100 300.00 1500.00 478 1415 2.050 10000.000 0.000 1.505
101 303.00 1500.00 437 1428 2.050 10000.000 0.000 1.505
102 306.00 1500.00 452 1439 2.050 10000.000 0.000 1.505
103 309.00 1500.00 437 1469 2.050 10000.000 0.000 1.505
104 312.00 1500.00 483 1535 2.050 10000.000 0.000 1.505
105 315.00 1500.00 484 1513 2.050 10000.000 0.000 1.505
106 318.00 1500.00 457 1529 2.050 10000.000 0.000 1.505
107 321.00 1500.00 492 1554 2.050 10000.000 0.000 1.505
108 324.00 1500.00 466 1465 2.050 10000.000 0.000 1.505
109 327.00 1500.00 518 1588 2.050 10000.000 0.000 1.505
110 330.00 1500.00 472 1434 2.050 10000.000 0.000 1.505
111 333.00 1500.00 487 1410 2.050 10000.000 0.000 1.505
112 336.00 1500.00 468 1426 2.050 10000.000 0.000 1.505
113 339.00 1500.00 495 1380 2.050 10000.000 0.000 1.505
114 342.00 1500.00 471 1393 2.050 10000.000 0.000 1.505
115 345.00 1500.00 508 1338 2.050 10000.000 0.000 1.505
116 348.00 1500.00 494 1328 2.050 10000.000 0.000 1.505
117 351.00 1500.00 519 1338 2.050 10000.000 0.000 1.505
118 354.00 1500.00 475 1399 2.050 10000.000 0.000 1.505
119 357.00 1500.00 493 1406 2.050 10000.000 0.000 1.505
120 360.00 1500.00 504 1453 2.050 10000.000 0.000 1.505
121 363.00 1500.00 491 1475 2.050 10000.000 0.000 1.505
122 366.00 1500.00 491 1522 2.050 10000.000 0.000 1.505
123 369.00 1500.00 485 1502 2.050 10000.000 0.000 1.505
124 372.00 1500.00 510 1533 2.050 10000.000 0.000 1.505
125 375.00 1500.00 504 1481 2.050 10000.000 0.000 1.505
126 378.00 1500.00 461 1573 2.050 10000.000 0.000 1.505
127 381.00 1500.00 443 1494 2.050 10000.000 0.000 1.505
128 384.00 1500.00 475 1495 2.050 10000.000 0.000 1.505
129 387.00 1500.00 460 1476 2.050 10000.000 0.000 1.505
130 390.00 1500.00 440 1446 2.050 10000.000 0.000 1.505
131 393.00 1500.00 453 1404 2.050 10000.000 0.000 1.505
132 396.00 1500.00 445 1450 2.050 10000.000 0.000 1.505
133 399.00 1500.00 453 1413 2.050 10000.000 0.000 1.505
134 402.00 1500.00 420 1469 2.050 10000.000 0.000 1.505
