# BinNR microsec tot-time (s)  O-Beam AUX Ampl(V) f(Hz) phase(deg) chi(pos)
0 0.00 1500.01 195 660 2.050 10000.000 0.000 1.329
1 3.00 1500.01 382 1287 2.050 10000.000 0.000 1.329
2 6.00 1500.01 378 1330 2.050 10000.000 0.000 1.329
3 9.00 1500.01 389 1376 2.050 10000.000 0.000 1.329
4 12.00 1500.01 393 1465 2.050 10000.000 0.000 1.329
5 15.00 1500.01 402 1458 2.050 10000.000 0.000 1.329
6 18.00 1500.01 473 1548 2.050 10000.000 0.000 1.329
7 21.00 1500.01 423 1553 2.050 10000.000 0.000 1.329
8 24.00 1500.01 449 1571 2.050 10000.000 0.000 1.329
9 27.00 1500.01 451 1534 2.050 10000.000 0.000 1.329
10 30.00 1500.01 438 1541 2.050 10000.000 0.000 1.329
11 33.00 1500.01 519 1579 2.050 10000.000 0.000 1.329
12 36.00 1500.01 482 1561 2.050 10000.000 0.000 1.329
13 39.00 1500.01 509 1527 2.050 10000.000 0.000 1.329
14 42.00 1500.01 501 1458 2.050 10000.000 0.000 1.329
15 45.00 1500.01 503 1509 2.050 10000.000 0.000 1.329
16 48.00 1500.01 498 1522 2.050 10000.000 0.000 1.329
17 51.00 1500.01 511 1477 2.050 10000.000 0.000 1.329
18 54.00 1500.01 505 1565 2.050 10000.000 0.000 1.329
19 57.00 1500.01 490 1503 2.050 10000.000 0.000 1.329
20 60.00 1500.01 452 1521 2.050 10000.000 0.000 1.329
21 63.00 1500.01 461 1551 2.050 10000.000 0.000 1.329
22 66.00 1500.01 493 1556 2.050 10000.000 0.000 1.329
23 69.00 1500.01 437 1467 2.050 10000.000 0.000 1.329
24 72.00 1500.01 398 1464 2.050 10000.000 0.000 1.329
25 75.00 1500.01 460 1414 2.050 10000.000 0.000 1.329
26 78.00 1500.01 372 1435 2.050 10000.000 0.000 1.329
27 81.00 1500.01 378 1282 2.050 10000.000 0.000 1.329
28 84.00 1500.01 398 1317 2.050 10000.000 0.000 1.329
29 87.00 1500.01 345 1279 2.050 10000.000 0.000 1.329
30 90.00 1500.01 364 1223 2.050 10000.000 0.000 1.329
31 93.00 1500.01 381 1143 2.050 10000.000 0.000 1.329
32 96.00 1500.01 370 1196 2.050 10000.000 0.000 1.329
33 99.00 1500.01 371 1146 2.050 10000.000 0.000 1.329
34 102.00 1500.01 388 1245 2.050 10000.000 0.000 1.329
35 105.00 1500.01 375 1233 2.050 10000.000 0.000 1.329
36 108.00 1500.01 369 1297 2.050 10000.000 0.000 1.329
37 111.00 1500.01 418 1351 2.050 10000.000 0.000 1.329
38 114.00 1500.01 373 1418 2.050 10000.000 0.000 1.329
39 117.00 1500.01 401 1368 2.050 10000.000 0.000 1.329
40 120.00 1500.01 446 1474 2.050 10000.000 0.000 1.329
41 123.00 1500.01 452 1502 2.050 10000.000 0.000 1.329
42 126.00 1500.01 440 1564 2.050 10000.000 0.000 1.329
43 129.00 1500.01 456 1544 2.050 10000.000 0.000 1.329
44 132.00 1500.01 464 1522 2.050 10000.000 0.000 1.329
45 135.00 1500.01 439 1557 2.050 10000.000 0.000 1.329
46 138.00 1500.01 505 1519 2.050 10000.000 0.000 1.329
47 141.00 1500.01 444 1531 2.050 10000.000 0.000 1.329
48 144.00 1500.01 520 1480 2.050 10000.000 0.000 1.329
49 147.00 1500.01 470 1528 2.050 10000.000 0.000 1.329
50 150.00 1500.01 479 1519 2.050 10000.000 0.000 1.329
51 153.00 1500.01 530 1547 2.050 10000.000 0.000 1.329
52 156.00 1500.01 487 1547 2.050 10000.000 0.000 1.329
53 159.00 1500.01 494 1574 2.050 10000.000 0.000 1.329
54 162.00 1500.01 459 1549 2.050 10000.000 0.000 1.329
55 165.00 1500.01 444 1552 2.050 10000.000 0.000 1.329
56 168.00 1500.01 465 1556 2.050 10000.000 0.000 1.329
57 171.00 1500.01 434 1468 2.050 10000.000 0.000 1.329
58 174.00 1500.01 422 1441 2.050 10000.000 0.000 1.329
59 177.00 1500.01 424 1354 2.050 10000.000 0.000 1.329
60 180.00 1500.01 406 1309 2.050 10000.000 0.000 1.329
61 183.00 1500.01 387 1298 2.050 10000.000 0.000 1.329
62 186.00 1500.01 418 1255 2.050 10000.000 0.000 1.329
63 189.00 1500.01 333 1230 2.050 10000.000 0.000 1.329
64 192.00 1500.01 367 1222 2.050 10000.000 0.000 1.329
65 195.00 1500.01 331 1129 2.050 10000.000 0.000 1.329
66 198.00 1500.01 359 1185 2.050 10000.000 0.000 1.329
67 201.00 1500.01 386 1133 2.050 10000.000 0.000 1.329
68 204.00 1500.01 376 1222 2.050 10000.000 0.000 1.329
69 207.00 1500.01 369 1285 2.050 10000.000 0.000 1.329
70 210.00 1500.01 403 1350 2.050 10000.000 0.000 1.329
71 213.00 1500.01 418 1355 2.050 10000.000 0.000 1.329
72 216.00 1500.01 417 1420 2.050 10000.000 0.000 1.329
73 219.00 1500.01 414 1376 2.050 10000.000 0.000 1.329
74 222.00 1500.01 464 1494 2.050 10000.000 0.000 1.329
75 225.00 1500.01 422 1576 2.050 10000.000 0.000 1.329
76 228.00 1500.01 470 1479 2.050 10000.000 0.000 1.329
77 231.00 1500.01 437 1511 2.050 10000.000 0.000 1.329
78 234.00 1500.01 513 1679 2.050 10000.000 0.000 1.329
79 237.00 1500.01 463 1463 2.050 10000.000 0.000 1.329
80 240.00 1500.01 512 1507 2.050 10000.000 0.000 1.329
81 243.00 1500.01 520 1492 2.050 10000.000 0.000 1.329
82 246.00 1500.01 493 1591 2.050 10000.000 0.000 1.329
83 249.00 1500.01 487 1549 2.050 10000.000 0.000 1.329
84 252.00 1500.01 430 1564 2.050 10000.000 0.000 1.329
85 255.00 1500.01 491 1560 2.050 10000.000 0.000 1.329
86 258.00 1500.01 471 1514 2.050 10000.000 0.000 1.329
87 261.00 1500.01 500 1544 2.050 10000.000 0.000 1.329
88 264.00 1500.01 478 1621 2.050 10000.000 0.000 1.329
89 267.00 1500.01 439 1540 2.050 10000.000 0.000 1.329
90 270.00 1500.01 428 1508 2.050 10000.000 0.000 1.329
91 273.00 1500.01 470 1463 2.050 10000.000 0.000 1.329
92 276.00 1500.01 413 1404 2.050 10000.000 0.000 1.329
93 279.00 1500.01 398 1365 2.050 10000.000 0.000 1.329
94 282.00 1500.01 406 1278 2.050 10000.000 0.000 1.329
95 285.00 1500.01 378 1219 2.050 10000.000 0.000 1.329
96 288.00 1500.01 363 1273 2.050 10000.000 0.000 1.329
97 291.00 1500.01 342 1212 2.050 10000.000 0.000 1.329
98 294.00 1500.01 351 1195 2.050 10000.000 0.000 1.329
99 297.00 1500.01 402 1167 2.050 10000.000 0.000 1.329
100 300.00 1500.01 374 1178 2.050 10000.000 0.000 1.329
101 303.00 1500.01 383 1284 2.050 10000.000 0.000 1.329
102 306.00 1500.01 416 1287 2.050 10000.000 0.000 1.329
103 309.00 1500.01 400 1261 2.050 10000.000 0.000 1.329
104 312.00 1500.01 429 1377 2.050 10000.000 0.000 1.329
105 315.00 1500.01 390 1308 2.050 10000.000 0.000 1.329
106 318.00 1500.01 436 1379 2.050 10000.000 0.000 1.329
107 321.00 1500.01 451 1497 2.050 10000.000 0.000 1.329
108 324.00 1500.01 444 1487 2.050 10000.000 0.000 1.329
109 327.00 1500.01 491 1541 2.050 10000.000 0.000 1.329
110 330.00 1500.01 487 1588 2.050 10000.000 0.000 1.329
111 333.00 1500.01 480 1502 2.050 10000.000 0.000 1.329
112 336.00 1500.01 486 1547 2.050 10000.000 0.000 1.329
113 339.00 1500.01 504 1497 2.050 10000.000 0.000 1.329
114 342.00 1500.01 474 1544 2.050 10000.000 0.000 1.329
115 345.00 1500.01 458 1551 2.050 10000.000 0.000 1.329
116 348.00 1500.01 524 1516 2.050 10000.000 0.000 1.329
117 351.00 1500.01 471 1513 2.050 10000.000 0.000 1.329
118 354.00 1500.01 559 1577 2.050 10000.000 0.000 1.329
119 357.00 1500.01 440 1576 2.050 10000.000 0.000 1.329
120 360.00 1500.01 480 1511 2.050 10000.000 0.000 1.329
121 363.00 1500.01 476 1517 2.050 10000.000 0.000 1.329
122 366.00 1500.01 453 1609 2.050 10000.000 0.000 1.329
123 369.00 1500.01 457 1516 2.050 10000.000 0.000 1.329
124 372.00 1500.01 452 1447 2.050 10000.000 0.000 1.329
125 375.00 1500.01 454 1383 2.050 10000.000 0.000 1.329
126 378.00 1500.01 404 1402 2.050 10000.000 0.000 1.329
127 381.00 1500.01 419 1312 2.050 10000.000 0.000 1.329
128 384.00 1500.01 424 1392 2.050 10000.000 0.000 1.329
129 387.00 1500.01 391 1241 2.050 10000.000 0.000 1.329
130 390.00 1500.01 362 1203 2.050 10000.000 0.000 1.329
131 393.00 1500.01 370 1135 2.050 10000.000 0.000 1.329
132 396.00 1500.01 391 1177 2.050 10000.000 0.000 1.329
133 399.00 1500.01 348 1180 2.050 10000.000 0.000 1.329
134 402.00 1500.01 371 1182 2.050 10000.000 0.000 1.329
