# BinNR microsec tot-time (s)  O-Beam AUX Ampl(V) f(Hz) phase(deg) chi(pos)
0 0.00 1500.01 87 109 2.050 10000.000 0.000 0.330
1 3.00 1500.01 166 200 2.050 10000.000 0.000 0.330
2 6.00 1500.01 170 197 2.050 10000.000 0.000 0.330
3 9.00 1500.01 170 213 2.050 10000.000 0.000 0.330
4 12.00 1500.01 199 224 2.050 10000.000 0.000 0.330
5 15.00 1500.01 218 259 2.050 10000.000 0.000 0.330
6 18.00 1500.01 238 302 2.050 10000.000 0.000 0.330
7 21.00 1500.01 213 334 2.050 10000.000 0.000 0.330
8 24.00 1500.01 223 391 2.050 10000.000 0.000 0.330
9 27.00 1500.01 218 443 2.050 10000.000 0.000 0.330
10 30.00 1500.01 240 489 2.050 10000.000 0.000 0.330
11 33.00 1500.01 270 548 2.050 10000.000 0.000 0.330
12 36.00 1500.01 296 541 2.050 10000.000 0.000 0.330
13 39.00 1500.01 293 533 2.050 10000.000 0.000 0.330
14 42.00 1500.01 287 531 2.050 10000.000 0.000 0.330
15 45.00 1500.01 288 541 2.050 10000.000 0.000 0.330
16 48.00 1500.01 302 505 2.050 10000.000 0.000 0.330
17 51.00 1500.01 256 525 2.050 10000.000 0.000 0.330
18 54.00 1500.01 276 520 2.050 10000.000 0.000 0.330
19 57.00 1500.01 296 454 2.050 10000.000 0.000 0.330
20 60.00 1500.01 259 466 2.050 10000.000 0.000 0.330
21 63.00 1500.01 238 392 2.050 10000.000 0.000 0.330
22 66.00 1500.01 228 366 2.050 10000.000 0.000 0.330
23 69.00 1500.01 224 312 2.050 10000.000 0.000 0.330
24 72.00 1500.01 185 264 2.050 10000.000 0.000 0.330
25 75.00 1500.01 194 226 2.050 10000.000 0.000 0.330
26 78.00 1500.01 229 202 2.050 10000.000 0.000 0.330
27 81.00 1500.01 181 177 2.050 10000.000 0.000 0.330
28 84.00 1500.01 159 189 2.050 10000.000 0.000 0.330
29 87.00 1500.01 178 196 2.050 10000.000 0.000 0.330
30 90.00 1500.01 184 194 2.050 10000.000 0.000 0.330
31 93.00 1500.01 153 212 2.050 10000.000 0.000 0.330
32 96.00 1500.01 177 206 2.050 10000.000 0.000 0.330
33 99.00 1500.01 150 197 2.050 10000.000 0.000 0.330
34 102.00 1500.01 176 188 2.050 10000.000 0.000 0.330
35 105.00 1500.01 157 174 2.050 10000.000 0.000 0.330
36 108.00 1500.01 184 192 2.050 10000.000 0.000 0.330
37 111.00 1500.01 177 167 2.050 10000.000 0.000 0.330
38 114.00 1500.01 188 205 2.050 10000.000 0.000 0.330
39 117.00 1500.01 208 216 2.050 10000.000 0.000 0.330
40 120.00 1500.01 240 269 2.050 10000.000 0.000 0.330
41 123.00 1500.01 236 309 2.050 10000.000 0.000 0.330
42 126.00 1500.01 229 336 2.050 10000.000 0.000 0.330
43 129.00 1500.01 249 416 2.050 10000.000 0.000 0.330
44 132.00 1500.01 256 493 2.050 10000.000 0.000 0.330
45 135.00 1500.01 285 483 2.050 10000.000 0.000 0.330
46 138.00 1500.01 303 575 2.050 10000.000 0.000 0.330
47 141.00 1500.01 309 575 2.050 10000.000 0.000 0.330
48 144.00 1500.01 321 602 2.050 10000.000 0.000 0.330
49 147.00 1500.01 282 554 2.050 10000.000 0.000 0.330
50 150.00 1500.01 302 586 2.050 10000.000 0.000 0.330
51 153.00 1500.01 253 542 2.050 10000.000 0.000 0.330
52 156.00 1500.01 248 551 2.050 10000.000 0.000 0.330
53 159.00 1500.01 277 492 2.050 10000.000 0.000 0.330
54 162.00 1500.01 239 421 2.050 10000.000 0.000 0.330
55 165.00 1500.01 216 376 2.050 10000.000 0.000 0.330
56 168.00 1500.01 208 337 2.050 10000.000 0.000 0.330
57 171.00 1500.01 204 293 2.050 10000.000 0.000 0.330
58 174.00 1500.01 191 262 2.050 10000.000 0.000 0.330
59 177.00 1500.01 183 188 2.050 10000.000 0.000 0.330
60 180.00 1500.01 190 161 2.050 10000.000 0.000 0.330
61 183.00 1500.01 181 188 2.050 10000.000 0.000 0.330
62 186.00 1500.01 203 194 2.050 10000.000 0.000 0.330
63 189.00 1500.01 151 185 2.050 10000.000 0.000 0.330
64 192.00 1500.01 169 188 2.050 10000.000 0.000 0.330
65 195.00 1500.01 152 207 2.050 10000.000 0.000 0.330
66 198.00 1500.01 162 188 2.050 10000.000 0.000 0.330
67 201.00 1500.01 167 202 2.050 10000.000 0.000 0.330
68 204.00 1500.01 158 213 2.050 10000.000 0.000 0.330
69 207.00 1500.01 173 202 2.050 10000.000 0.000 0.330
70 210.00 1500.01 205 205 2.050 10000.000 0.000 0.330
71 213.00 1500.01 196 177 2.050 10000.000 0.000 0.330
72 216.00 1500.01 224 201 2.050 10000.000 0.000 0.330
73 219.00 1500.01 201 236 2.050 10000.000 0.000 0.330
74 222.00 1500.01 248 304 2.050 10000.000 0.000 0.330
75 225.00 1500.01 271 295 2.050 10000.000 0.000 0.330
76 228.00 1500.01 286 405 2.050 10000.000 0.000 0.330
77 231.00 1500.01 286 459 2.050 10000.000 0.000 0.330
78 234.00 1500.01 304 495 2.050 10000.000 0.000 0.330
79 237.00 1500.01 285 533 2.050 10000.000 0.000 0.330
80 240.00 1500.01 304 600 2.050 10000.000 0.000 0.330
81 243.00 1500.01 312 595 2.050 10000.000 0.000 0.330
82 246.00 1500.01 271 587 2.050 10000.000 0.000 0.330
83 249.00 1500.01 289 582 2.050 10000.000 0.000 0.330
84 252.00 1500.01 294 612 2.050 10000.000 0.000 0.330
85 255.00 1500.01 270 566 2.050 10000.000 0.000 0.330
86 258.00 1500.01 267 487 2.050 10000.000 0.000 0.330
87 261.00 1500.01 286 426 2.050 10000.000 0.000 0.330
88 264.00 1500.01 248 396 2.050 10000.000 0.000 0.330
89 267.00 1500.01 215 350 2.050 10000.000 0.000 0.330
90 270.00 1500.01 212 304 2.050 10000.000 0.000 0.330
91 273.00 1500.01 196 230 2.050 10000.000 0.000 0.330
92 276.00 1500.01 188 219 2.050 10000.000 0.000 0.330
93 279.00 1500.01 187 187 2.050 10000.000 0.000 0.330
94 282.00 1500.01 177 172 2.050 10000.000 0.000 0.330
95 285.00 1500.01 170 183 2.050 10000.000 0.000 0.330
96 288.00 1500.01 190 161 2.050 10000.000 0.000 0.330
97 291.00 1500.01 160 227 2.050 10000.000 0.000 0.330
98 294.00 1500.01 175 202 2.050 10000.000 0.000 0.330
99 297.00 1500.01 145 214 2.050 10000.000 0.000 0.330
100 300.00 1500.01 172 222 2.050 10000.000 0.000 0.330
101 303.00 1500.01 154 179 2.050 10000.000 0.000 0.330
102 306.00 1500.01 187 186 2.050 10000.000 0.000 0.330
103 309.00 1500.01 202 175 2.050 10000.000 0.000 0.330
104 312.00 1500.01 182 192 2.050 10000.000 0.000 0.330
105 315.00 1500.01 195 236 2.050 10000.000 0.000 0.330
106 318.00 1500.01 191 221 2.050 10000.000 0.000 0.330
107 321.00 1500.01 226 257 2.050 10000.000 0.000 0.330
108 324.00 1500.01 238 323 2.050 10000.000 0.000 0.330
109 327.00 1500.01 230 364 2.050 10000.000 0.000 0.330
110 330.00 1500.01 287 437 2.050 10000.000 0.000 0.330
111 333.00 1500.01 278 516 2.050 10000.000 0.000 0.330
112 336.00 1500.01 306 498 2.050 10000.000 0.000 0.330
113 339.00 1500.01 282 557 2.050 10000.000 0.000 0.330
114 342.00 1500.01 290 602 2.050 10000.000 0.000 0.330
115 345.00 1500.01 307 615 2.050 10000.000 0.000 0.330
116 348.00 1500.01 278 636 2.050 10000.000 0.000 0.330
117 351.00 1500.01 273 594 2.050 10000.000 0.000 0.330
118 354.00 1500.01 267 543 2.050 10000.000 0.000 0.330
119 357.00 1500.01 282 473 2.050 10000.000 0.000 0.330
120 360.00 1500.01 256 463 2.050 10000.000 0.000 0.330
121 363.00 1500.01 271 427 2.050 10000.000 0.000 0.330
122 366.00 1500.01 237 369 2.050 10000.000 0.000 0.330
123 369.00 1500.01 221 327 2.050 10000.000 0.000 0.330
124 372.00 1500.01 243 266 2.050 10000.000 0.000 0.330
125 375.00 1500.01 205 241 2.050 10000.000 0.000 0.330
126 378.00 1500.01 192 215 2.050 10000.000 0.000 0.330
127 381.00 1500.01 200 189 2.050 10000.000 0.000 0.330
128 384.00 1500.01 191 216 2.050 10000.000 0.000 0.330
129 387.00 1500.01 194 181 2.050 10000.000 0.000 0.330
130 390.00 1500.01 187 193 2.050 10000.000 0.000 0.330
131 393.00 1500.01 155 190 2.050 10000.000 0.000 0.330
132 396.00 1500.01 151 201 2.050 10000.000 0.000 0.330
133 399.00 1500.01 154 162 2.050 10000.000 0.000 0.330
134 402.00 1500.01 153 210 2.050 10000.000 0.000 0.330
