# BinNR microsec tot-time (s)  O-Beam AUX Ampl(V) f(Hz) phase(deg) chi(pos)
0 0.00 1500.01 185 373 2.050 10000.000 0.000 -0.176
1 3.00 1500.01 336 738 2.050 10000.000 0.000 -0.176
2 6.00 1500.01 401 830 2.050 10000.000 0.000 -0.176
3 9.00 1500.01 401 893 2.050 10000.000 0.000 -0.176
4 12.00 1500.01 440 965 2.050 10000.000 0.000 -0.176
5 15.00 1500.01 415 1071 2.050 10000.000 0.000 -0.176
6 18.00 1500.01 438 1141 2.050 10000.000 0.000 -0.176
7 21.00 1500.01 457 1128 2.050 10000.000 0.000 -0.176
8 24.00 1500.01 508 1280 2.050 10000.000 0.000 -0.176
9 27.00 1500.01 439 1343 2.050 10000.000 0.000 -0.176
10 30.00 1500.01 489 1344 2.050 10000.000 0.000 -0.176
11 33.00 1500.01 502 1404 2.050 10000.000 0.000 -0.176
12 36.00 1500.01 499 1390 2.050 10000.000 0.000 -0.176
13 39.00 1500.01 469 1416 2.050 10000.000 0.000 -0.176
14 42.00 1500.01 474 1479 2.050 10000.000 0.000 -0.176
15 45.00 1500.01 500 1352 2.050 10000.000 0.000 -0.176
16 48.00 1500.01 493 1443 2.050 10000.000 0.000 -0.176
17 51.00 1500.01 485 1368 2.050 10000.000 0.000 -0.176
18 54.00 1500.01 462 1472 2.050 10000.000 0.000 -0.176
19 57.00 1500.01 479 1356 2.050 10000.000 0.000 -0.176
20 60.00 1500.01 465 1383 2.050 10000.000 0.000 -0.176
21 63.00 1500.01 402 1320 2.050 10000.000 0.000 -0.176
22 66.00 1500.01 421 1236 2.050 10000.000 0.000 -0.176
23 69.00 1500.01 399 1208 2.050 10000.000 0.000 -0.176
24 72.00 1500.01 380 1117 2.050 10000.000 0.000 -0.176
25 75.00 1500.01 400 1004 2.050 10000.000 0.000 -0.176
26 78.00 1500.01 385 989 2.050 10000.000 0.000 -0.176
27 81.00 1500.01 368 884 2.050 10000.000 0.000 -0.176
28 84.00 1500.01 374 777 2.050 10000.000 0.000 -0.176
29 87.00 1500.01 331 724 2.050 10000.000 0.000 -0.176
30 90.00 1500.01 380 709 2.050 10000.000 0.000 -0.176
31 93.00 1500.01 341 673 2.050 10000.000 0.000 -0.176
32 96.00 1500.01 339 706 2.050 10000.000 0.000 -0.176
33 99.00 1500.01 335 662 2.050 10000.000 0.000 -0.176
34 102.00 1500.01 378 712 2.050 10000.000 0.000 -0.176
35 105.00 1500.01 394 721 2.050 10000.000 0.000 -0.176
36 108.00 1500.01 419 829 2.050 10000.000 0.000 -0.176
37 111.00 1500.01 395 854 2.050 10000.000 0.000 -0.176
38 114.00 1500.01 426 923 2.050 10000.000 0.000 -0.176
39 117.00 1500.01 429 1002 2.050 10000.000 0.000 -0.176
40 120.00 1500.01 441 1014 2.050 10000.000 0.000 -0.176
41 123.00 1500.01 470 1161 2.050 10000.000 0.000 -0.176
42 126.00 1500.01 471 1212 2.050 10000.000 0.000 -0.176
43 129.00 1500.01 466 1288 2.050 10000.000 0.000 -0.176
44 132.00 1500.01 468 1386 2.050 10000.000 0.000 -0.176
45 135.00 1500.01 456 1347 2.050 10000.000 0.000 -0.176
46 138.00 1500.01 491 1392 2.050 10000.000 0.000 -0.176
47 141.00 1500.01 461 1434 2.050 10000.000 0.000 -0.176
48 144.00 1500.01 450 1495 2.050 10000.000 0.000 -0.176
49 147.00 1500.01 446 1458 2.050 10000.000 0.000 -0.176
50 150.00 1500.01 485 1446 2.050 10000.000 0.000 -0.176
51 153.00 1500.01 453 1412 2.050 10000.000 0.000 -0.176
52 156.00 1500.01 495 1410 2.050 10000.000 0.000 -0.176
53 159.00 1500.01 433 1323 2.050 10000.000 0.000 -0.176
54 162.00 1500.01 442 1348 2.050 10000.000 0.000 -0.176
55 165.00 1500.01 407 1291 2.050 10000.000 0.000 -0.176
56 168.00 1500.01 424 1250 2.050 10000.000 0.000 -0.176
57 171.00 1500.01 394 1158 2.050 10000.000 0.000 -0.176
58 174.00 1500.01 431 1094 2.050 10000.000 0.000 -0.176
59 177.00 1500.01 356 979 2.050 10000.000 0.000 -0.176
60 180.00 1500.01 389 897 2.050 10000.000 0.000 -0.176
61 183.00 1500.01 372 843 2.050 10000.000 0.000 -0.176
62 186.00 1500.01 356 769 2.050 10000.000 0.000 -0.176
63 189.00 1500.01 328 720 2.050 10000.000 0.000 -0.176
64 192.00 1500.01 343 739 2.050 10000.000 0.000 -0.176
65 195.00 1500.01 340 667 2.050 10000.000 0.000 -0.176
66 198.00 1500.01 337 718 2.050 10000.000 0.000 -0.176
67 201.00 1500.01 360 691 2.050 10000.000 0.000 -0.176
68 204.00 1500.01 367 648 2.050 10000.000 0.000 -0.176
69 207.00 1500.01 373 759 2.050 10000.000 0.000 -0.176
70 210.00 1500.01 386 803 2.050 10000.000 0.000 -0.176
71 213.00 1500.01 404 868 2.050 10000.000 0.000 -0.176
72 216.00 1500.01 438 975 2.050 10000.000 0.000 -0.176
73 219.00 1500.01 466 1082 2.050 10000.000 0.000 -0.176
74 222.00 1500.01 459 1073 2.050 10000.000 0.000 -0.176
75 225.00 1500.01 462 1207 2.050 10000.000 0.000 -0.176
76 228.00 1500.01 476 1345 2.050 10000.000 0.000 -0.176
77 231.00 1500.01 441 1296 2.050 10000.000 0.000 -0.176
78 234.00 1500.01 472 1425 2.050 10000.000 0.000 -0.176
79 237.00 1500.01 468 1457 2.050 10000.000 0.000 -0.176
80 240.00 1500.01 451 1405 2.050 10000.000 0.000 -0.176
81 243.00 1500.01 454 1416 2.050 10000.000 0.000 -0.176
82 246.00 1500.01 502 1386 2.050 10000.000 0.000 -0.176
83 249.00 1500.01 502 1472 2.050 10000.000 0.000 -0.176
84 252.00 1500.01 448 1442 2.050 10000.000 0.000 -0.176
85 255.00 1500.01 460 1407 2.050 10000.000 0.000 -0.176
86 258.00 1500.01 488 1301 2.050 10000.000 0.000 -0.176
87 261.00 1500.01 441 1358 2.050 10000.000 0.000 -0.176
88 264.00 1500.01 455 1293 2.050 10000.000 0.000 -0.176
89 267.00 1500.01 417 1239 2.050 10000.000 0.000 -0.176
90 270.00 1500.01 398 1220 2.050 10000.000 0.000 -0.176
91 273.00 1500.01 414 1078 2.050 10000.000 0.000 -0.176
92 276.00 1500.01 384 980 2.050 10000.000 0.000 -0.176
93 279.00 1500.01 362 872 2.050 10000.000 0.000 -0.176
94 282.00 1500.01 363 849 2.050 10000.000 0.000 -0.176
95 285.00 1500.01 346 828 2.050 10000.000 0.000 -0.176
96 288.00 1500.01 343 682 2.050 10000.000 0.000 -0.176
97 291.00 1500.01 347 633 2.050 10000.000 0.000 -0.176
98 294.00 1500.01 357 691 2.050 10000.000 0.000 -0.176
99 297.00 1500.01 384 674 2.050 10000.000 0.000 -0.176
100 300.00 1500.01 354 713 2.050 10000.000 0.000 -0.176
101 303.00 1500.01 341 725 2.050 10000.000 0.000 -0.176
102 306.00 1500.01 336 778 2.050 10000.000 0.000 -0.176
103 309.00 1500.01 381 833 2.050 10000.000 0.000 -0.176
104 312.00 1500.01 456 900 2.050 10000.000 0.000 -0.176
105 315.00 1500.01 423 953 2.050 10000.000 0.000 -0.176
106 318.00 1500.01 396 1098 2.050 10000.000 0.000 -0.176
107 321.00 1500.01 402 1107 2.050 10000.000 0.000 -0.176
108 324.00 1500.01 482 1157 2.050 10000.000 0.000 -0.176
109 327.00 1500.01 418 1257 2.050 10000.000 0.000 -0.176
110 330.00 1500.01 495 1252 2.050 10000.000 0.000 -0.176
111 333.00 1500.01 498 1377 2.050 10000.000 0.000 -0.176
112 336.00 1500.01 454 1390 2.050 10000.000 0.000 -0.176
113 339.00 1500.01 447 1345 2.050 10000.000 0.000 -0.176
114 342.00 1500.01 475 1454 2.050 10000.000 0.000 -0.176
115 345.00 1500.01 475 1476 2.050 10000.000 0.000 -0.176
116 348.00 1500.01 485 1423 2.050 10000.000 0.000 -0.176
117 351.00 1500.01 466 1449 2.050 10000.000 0.000 -0.176
118 354.00 1500.01 488 1452 2.050 10000.000 0.000 -0.176
119 357.00 1500.01 433 1337 2.050 10000.000 0.000 -0.176
120 360.00 1500.01 445 1350 2.050 10000.000 0.000 -0.176
121 363.00 1500.01 431 1297 2.050 10000.000 0.000 -0.176
122 366.00 1500.01 447 1285 2.050 10000.000 0.000 -0.176
123 369.00 1500.01 446 1166 2.050 10000.000 0.000 -0.176
124 372.00 1500.01 436 1139 2.050 10000.000 0.000 -0.176
125 375.00 1500.01 408 1023 2.050 10000.000 0.000 -0.176
126 378.00 1500.01 416 985 2.050 10000.000 0.000 -0.176
127 381.00 1500.01 359 906 2.050 10000.000 0.000 -0.176
128 384.00 1500.01 360 792 2.050 10000.000 0.000 -0.176
129 387.00 1500.01 374 740 2.050 10000.000 0.000 -0.176
130 390.00 1500.01 354 715 2.050 10000.000 0.000 -0.176
131 393.00 1500.01 376 702 2.050 10000.000 0.000 -0.176
132 396.00 1500.01 357 688 2.050 10000.000 0.000 -0.176
133 399.00 1500.01 344 724 2.050 10000.000 0.000 -0.176
134 402.00 1500.01 334 726 2.050 10000.000 0.000 -0.176
