# BinNR microsec tot-time (s)  O-Beam AUX Ampl(V) f(Hz) phase(deg) chi(pos)
0 0.00 1500.01 187 707 2.050 10000.000 0.000 1.165
1 3.00 1500.01 351 1406 2.050 10000.000 0.000 1.165
2 6.00 1500.01 396 1412 2.050 10000.000 0.000 1.165
3 9.00 1500.01 365 1292 2.050 10000.000 0.000 1.165
4 12.00 1500.01 341 1344 2.050 10000.000 0.000 1.165
5 15.00 1500.01 333 1179 2.050 10000.000 0.000 1.165
6 18.00 1500.01 343 1112 2.050 10000.000 0.000 1.165
7 21.00 1500.01 330 972 2.050 10000.000 0.000 1.165
8 24.00 1500.01 323 879 2.050 10000.000 0.000 1.165
9 27.00 1500.01 263 825 2.050 10000.000 0.000 1.165
10 30.00 1500.01 266 793 2.050 10000.000 0.000 1.165
11 33.00 1500.01 234 763 2.050 10000.000 0.000 1.165
12 36.00 1500.01 221 743 2.050 10000.000 0.000 1.165
13 39.00 1500.01 275 706 2.050 10000.000 0.000 1.165
14 42.00 1500.01 213 806 2.050 10000.000 0.000 1.165
15 45.00 1500.01 212 773 2.050 10000.000 0.000 1.165
16 48.00 1500.01 227 729 2.050 10000.000 0.000 1.165
17 51.00 1500.01 244 770 2.050 10000.000 0.000 1.165
18 54.00 1500.01 258 816 2.050 10000.000 0.000 1.165
19 57.00 1500.01 253 832 2.050 10000.000 0.000 1.165
20 60.00 1500.01 278 874 2.050 10000.000 0.000 1.165
21 63.00 1500.01 275 858 2.050 10000.000 0.000 1.165
22 66.00 1500.01 309 948 2.050 10000.000 0.000 1.165
23 69.00 1500.01 334 985 2.050 10000.000 0.000 1.165
24 72.00 1500.01 302 1038 2.050 10000.000 0.000 1.165
25 75.00 1500.01 341 1172 2.050 10000.000 0.000 1.165
26 78.00 1500.01 391 1345 2.050 10000.000 0.000 1.165
27 81.00 1500.01 356 1314 2.050 10000.000 0.000 1.165
28 84.00 1500.01 435 1382 2.050 10000.000 0.000 1.165
29 87.00 1500.01 418 1503 2.050 10000.000 0.000 1.165
30 90.00 1500.01 397 1463 2.050 10000.000 0.000 1.165
31 93.00 1500.01 447 1384 2.050 10000.000 0.000 1.165
32 96.00 1500.01 392 1390 2.050 10000.000 0.000 1.165
33 99.00 1500.01 416 1457 2.050 10000.000 0.000 1.165
34 102.00 1500.01 435 1482 2.050 10000.000 0.000 1.165
35 105.00 1500.01 427 1472 2.050 10000.000 0.000 1.165
36 108.00 1500.01 389 1355 2.050 10000.000 0.000 1.165
37 111.00 1500.01 339 1314 2.050 10000.000 0.000 1.165
38 114.00 1500.01 335 1271 2.050 10000.000 0.000 1.165
39 117.00 1500.01 323 1203 2.050 10000.000 0.000 1.165
40 120.00 1500.01 325 1197 2.050 10000.000 0.000 1.165
41 123.00 1500.01 284 1098 2.050 10000.000 0.000 1.165
42 126.00 1500.01 298 1020 2.050 10000.000 0.000 1.165
43 129.00 1500.01 245 902 2.050 10000.000 0.000 1.165
44 132.00 1500.01 240 866 2.050 10000.000 0.000 1.165
45 135.00 1500.01 232 772 2.050 10000.000 0.000 1.165
46 138.00 1500.01 236 718 2.050 10000.000 0.000 1.165
47 141.00 1500.01 244 661 2.050 10000.000 0.000 1.165
48 144.00 1500.01 258 656 2.050 10000.000 0.000 1.165
49 147.00 1500.01 224 691 2.050 10000.000 0.000 1.165
50 150.00 1500.01 252 660 2.050 10000.000 0.000 1.165
51 153.00 1500.01 218 719 2.050 10000.000 0.000 1.165
52 156.00 1500.01 261 792 2.050 10000.000 0.000 1.165
53 159.00 1500.01 250 764 2.050 10000.000 0.000 1.165
54 162.00 1500.01 301 843 2.050 10000.000 0.000 1.165
55 165.00 1500.01 298 949 2.050 10000.000 0.000 1.165
56 168.00 1500.01 318 981 2.050 10000.000 0.000 1.165
57 171.00 1500.01 327 1131 2.050 10000.000 0.000 1.165
58 174.00 1500.01 362 1164 2.050 10000.000 0.000 1.165
59 177.00 1500.01 375 1307 2.050 10000.000 0.000 1.165
60 180.00 1500.01 374 1327 2.050 10000.000 0.000 1.165
61 183.00 1500.01 402 1411 2.050 10000.000 0.000 1.165
62 186.00 1500.01 379 1422 2.050 10000.000 0.000 1.165
63 189.00 1500.01 393 1320 2.050 10000.000 0.000 1.165
64 192.00 1500.01 434 1422 2.050 10000.000 0.000 1.165
65 195.00 1500.01 401 1399 2.050 10000.000 0.000 1.165
66 198.00 1500.01 443 1480 2.050 10000.000 0.000 1.165
67 201.00 1500.01 405 1391 2.050 10000.000 0.000 1.165
68 204.00 1500.01 416 1420 2.050 10000.000 0.000 1.165
69 207.00 1500.01 398 1333 2.050 10000.000 0.000 1.165
70 210.00 1500.01 373 1415 2.050 10000.000 0.000 1.165
71 213.00 1500.01 342 1294 2.050 10000.000 0.000 1.165
72 216.00 1500.01 370 1199 2.050 10000.000 0.000 1.165
73 219.00 1500.01 319 1218 2.050 10000.000 0.000 1.165
74 222.00 1500.01 294 1079 2.050 10000.000 0.000 1.165
75 225.00 1500.01 283 1056 2.050 10000.000 0.000 1.165
76 228.00 1500.01 244 890 2.050 10000.000 0.000 1.165
77 231.00 1500.01 257 816 2.050 10000.000 0.000 1.165
78 234.00 1500.01 246 810 2.050 10000.000 0.000 1.165
79 237.00 1500.01 228 745 2.050 10000.000 0.000 1.165
80 240.00 1500.01 228 689 2.050 10000.000 0.000 1.165
81 243.00 1500.01 231 661 2.050 10000.000 0.000 1.165
82 246.00 1500.01 225 700 2.050 10000.000 0.000 1.165
83 249.00 1500.01 231 658 2.050 10000.000 0.000 1.165
84 252.00 1500.01 248 702 2.050 10000.000 0.000 1.165
85 255.00 1500.01 283 720 2.050 10000.000 0.000 1.165
86 258.00 1500.01 270 742 2.050 10000.000 0.000 1.165
87 261.00 1500.01 268 861 2.050 10000.000 0.000 1.165
88 264.00 1500.01 331 958 2.050 10000.000 0.000 1.165
89 267.00 1500.01 302 988 2.050 10000.000 0.000 1.165
90 270.00 1500.01 329 1101 2.050 10000.000 0.000 1.165
91 273.00 1500.01 328 1104 2.050 10000.000 0.000 1.165
92 276.00 1500.01 361 1215 2.050 10000.000 0.000 1.165
93 279.00 1500.01 377 1191 2.050 10000.000 0.000 1.165
94 282.00 1500.01 393 1354 2.050 10000.000 0.000 1.165
95 285.00 1500.01 387 1375 2.050 10000.000 0.000 1.165
96 288.00 1500.01 396 1447 2.050 10000.000 0.000 1.165
97 291.00 1500.01 399 1406 2.050 10000.000 0.000 1.165
98 294.00 1500.01 438 1443 2.050 10000.000 0.000 1.165
99 297.00 1500.01 403 1406 2.050 10000.000 0.000 1.165
100 300.00 1500.01 377 1479 2.050 10000.000 0.000 1.165
101 303.00 1500.01 418 1469 2.050 10000.000 0.000 1.165
102 306.00 1500.01 413 1373 2.050 10000.000 0.000 1.165
103 309.00 1500.01 356 1337 2.050 10000.000 0.000 1.165
104 312.00 1500.01 399 1316 2.050 10000.000 0.000 1.165
105 315.00 1500.01 341 1292 2.050 10000.000 0.000 1.165
106 318.00 1500.01 347 1247 2.050 10000.000 0.000 1.165
107 321.00 1500.01 338 1097 2.050 10000.000 0.000 1.165
108 324.00 1500.01 303 1059 2.050 10000.000 0.000 1.165
109 327.00 1500.01 282 997 2.050 10000.000 0.000 1.165
110 330.00 1500.01 274 899 2.050 10000.000 0.000 1.165
111 333.00 1500.01 265 818 2.050 10000.000 0.000 1.165
112 336.00 1500.01 249 776 2.050 10000.000 0.000 1.165
113 339.00 1500.01 221 739 2.050 10000.000 0.000 1.165
114 342.00 1500.01 258 694 2.050 10000.000 0.000 1.165
115 345.00 1500.01 232 674 2.050 10000.000 0.000 1.165
116 348.00 1500.01 211 698 2.050 10000.000 0.000 1.165
117 351.00 1500.01 231 671 2.050 10000.000 0.000 1.165
118 354.00 1500.01 256 771 2.050 10000.000 0.000 1.165
119 357.00 1500.01 264 711 2.050 10000.000 0.000 1.165
120 360.00 1500.01 264 859 2.050 10000.000 0.000 1.165
121 363.00 1500.01 286 886 2.050 10000.000 0.000 1.165
122 366.00 1500.01 273 990 2.050 10000.000 0.000 1.165
123 369.00 1500.01 327 1059 2.050 10000.000 0.000 1.165
124 372.00 1500.01 321 1149 2.050 10000.000 0.000 1.165
125 375.00 1500.01 338 1217 2.050 10000.000 0.000 1.165
126 378.00 1500.01 337 1270 2.050 10000.000 0.000 1.165
127 381.00 1500.01 370 1298 2.050 10000.000 0.000 1.165
128 384.00 1500.01 401 1325 2.050 10000.000 0.000 1.165
129 387.00 1500.01 386 1378 2.050 10000.000 0.000 1.165
130 390.00 1500.01 380 1385 2.050 10000.000 0.000 1.165
131 393.00 1500.01 442 1469 2.050 10000.000 0.000 1.165
132 396.00 1500.01 412 1458 2.050 10000.000 0.000 1.165
133 399.00 1500.01 369 1397 2.050 10000.000 0.000 1.165
134 402.00 1500.01 416 1418 2.050 10000.000 0.000 1.165
