# BinNR microsec tot-time (s)  O-Beam AUX Ampl(V) f(Hz) phase(deg) chi(pos)
0 0.00 1500.01 129 414 2.050 10000.000 0.000 0.824
1 3.00 1500.01 220 846 2.050 10000.000 0.000 0.824
2 6.00 1500.01 229 754 2.050 10000.000 0.000 0.824
3 9.00 1500.01 211 681 2.050 10000.000 0.000 0.824
4 12.00 1500.01 200 652 2.050 10000.000 0.000 0.824
5 15.00 1500.01 189 502 2.050 10000.000 0.000 0.824
6 18.00 1500.01 184 477 2.050 10000.000 0.000 0.824
7 21.00 1500.01 186 408 2.050 10000.000 0.000 0.824
8 24.00 1500.01 162 322 2.050 10000.000 0.000 0.824
9 27.00 1500.01 167 306 2.050 10000.000 0.000 0.824
10 30.00 1500.01 136 286 2.050 10000.000 0.000 0.824
11 33.00 1500.01 154 232 2.050 10000.000 0.000 0.824
12 36.00 1500.01 162 211 2.050 10000.000 0.000 0.824
13 39.00 1500.01 145 245 2.050 10000.000 0.000 0.824
14 42.00 1500.01 153 250 2.050 10000.000 0.000 0.824
15 45.00 1500.01 147 224 2.050 10000.000 0.000 0.824
16 48.00 1500.01 182 235 2.050 10000.000 0.000 0.824
17 51.00 1500.01 142 260 2.050 10000.000 0.000 0.824
18 54.00 1500.01 144 258 2.050 10000.000 0.000 0.824
19 57.00 1500.01 159 261 2.050 10000.000 0.000 0.824
20 60.00 1500.01 177 266 2.050 10000.000 0.000 0.824
21 63.00 1500.01 187 293 2.050 10000.000 0.000 0.824
22 66.00 1500.01 169 383 2.050 10000.000 0.000 0.824
23 69.00 1500.01 209 442 2.050 10000.000 0.000 0.824
24 72.00 1500.01 175 436 2.050 10000.000 0.000 0.824
25 75.00 1500.01 177 509 2.050 10000.000 0.000 0.824
26 78.00 1500.01 235 618 2.050 10000.000 0.000 0.824
27 81.00 1500.01 227 721 2.050 10000.000 0.000 0.824
28 84.00 1500.01 250 805 2.050 10000.000 0.000 0.824
29 87.00 1500.01 266 852 2.050 10000.000 0.000 0.824
30 90.00 1500.01 281 895 2.050 10000.000 0.000 0.824
31 93.00 1500.01 281 902 2.050 10000.000 0.000 0.824
32 96.00 1500.01 287 985 2.050 10000.000 0.000 0.824
33 99.00 1500.01 255 903 2.050 10000.000 0.000 0.824
34 102.00 1500.01 226 934 2.050 10000.000 0.000 0.824
35 105.00 1500.01 260 809 2.050 10000.000 0.000 0.824
36 108.00 1500.01 212 841 2.050 10000.000 0.000 0.824
37 111.00 1500.01 197 708 2.050 10000.000 0.000 0.824
38 114.00 1500.01 218 627 2.050 10000.000 0.000 0.824
39 117.00 1500.01 189 594 2.050 10000.000 0.000 0.824
40 120.00 1500.01 176 542 2.050 10000.000 0.000 0.824
41 123.00 1500.01 159 444 2.050 10000.000 0.000 0.824
42 126.00 1500.01 172 367 2.050 10000.000 0.000 0.824
43 129.00 1500.01 155 314 2.050 10000.000 0.000 0.824
44 132.00 1500.01 154 279 2.050 10000.000 0.000 0.824
45 135.00 1500.01 158 259 2.050 10000.000 0.000 0.824
46 138.00 1500.01 172 250 2.050 10000.000 0.000 0.824
47 141.00 1500.01 119 214 2.050 10000.000 0.000 0.824
48 144.00 1500.01 198 215 2.050 10000.000 0.000 0.824
49 147.00 1500.01 157 204 2.050 10000.000 0.000 0.824
50 150.00 1500.01 159 201 2.050 10000.000 0.000 0.824
51 153.00 1500.01 153 217 2.050 10000.000 0.000 0.824
52 156.00 1500.01 155 236 2.050 10000.000 0.000 0.824
53 159.00 1500.01 167 245 2.050 10000.000 0.000 0.824
54 162.00 1500.01 194 296 2.050 10000.000 0.000 0.824
55 165.00 1500.01 179 351 2.050 10000.000 0.000 0.824
56 168.00 1500.01 200 423 2.050 10000.000 0.000 0.824
57 171.00 1500.01 198 451 2.050 10000.000 0.000 0.824
58 174.00 1500.01 204 534 2.050 10000.000 0.000 0.824
59 177.00 1500.01 214 603 2.050 10000.000 0.000 0.824
60 180.00 1500.01 273 697 2.050 10000.000 0.000 0.824
61 183.00 1500.01 240 756 2.050 10000.000 0.000 0.824
62 186.00 1500.01 295 807 2.050 10000.000 0.000 0.824
63 189.00 1500.01 275 830 2.050 10000.000 0.000 0.824
64 192.00 1500.01 248 917 2.050 10000.000 0.000 0.824
65 195.00 1500.01 263 865 2.050 10000.000 0.000 0.824
66 198.00 1500.01 257 894 2.050 10000.000 0.000 0.824
67 201.00 1500.01 248 854 2.050 10000.000 0.000 0.824
68 204.00 1500.01 229 839 2.050 10000.000 0.000 0.824
69 207.00 1500.01 233 792 2.050 10000.000 0.000 0.824
70 210.00 1500.01 188 778 2.050 10000.000 0.000 0.824
71 213.00 1500.01 197 702 2.050 10000.000 0.000 0.824
72 216.00 1500.01 191 629 2.050 10000.000 0.000 0.824
73 219.00 1500.01 187 541 2.050 10000.000 0.000 0.824
74 222.00 1500.01 166 468 2.050 10000.000 0.000 0.824
75 225.00 1500.01 170 416 2.050 10000.000 0.000 0.824
76 228.00 1500.01 167 330 2.050 10000.000 0.000 0.824
77 231.00 1500.01 138 276 2.050 10000.000 0.000 0.824
78 234.00 1500.01 158 273 2.050 10000.000 0.000 0.824
79 237.00 1500.01 170 229 2.050 10000.000 0.000 0.824
80 240.00 1500.01 141 234 2.050 10000.000 0.000 0.824
81 243.00 1500.01 149 230 2.050 10000.000 0.000 0.824
82 246.00 1500.01 159 220 2.050 10000.000 0.000 0.824
83 249.00 1500.01 143 214 2.050 10000.000 0.000 0.824
84 252.00 1500.01 154 227 2.050 10000.000 0.000 0.824
85 255.00 1500.01 151 202 2.050 10000.000 0.000 0.824
86 258.00 1500.01 170 250 2.050 10000.000 0.000 0.824
87 261.00 1500.01 162 282 2.050 10000.000 0.000 0.824
88 264.00 1500.01 185 348 2.050 10000.000 0.000 0.824
89 267.00 1500.01 195 370 2.050 10000.000 0.000 0.824
90 270.00 1500.01 190 489 2.050 10000.000 0.000 0.824
91 273.00 1500.01 213 468 2.050 10000.000 0.000 0.824
92 276.00 1500.01 200 595 2.050 10000.000 0.000 0.824
93 279.00 1500.01 244 629 2.050 10000.000 0.000 0.824
94 282.00 1500.01 241 756 2.050 10000.000 0.000 0.824
95 285.00 1500.01 249 854 2.050 10000.000 0.000 0.824
96 288.00 1500.01 251 851 2.050 10000.000 0.000 0.824
97 291.00 1500.01 258 851 2.050 10000.000 0.000 0.824
98 294.00 1500.01 283 924 2.050 10000.000 0.000 0.824
99 297.00 1500.01 268 930 2.050 10000.000 0.000 0.824
100 300.00 1500.01 253 865 2.050 10000.000 0.000 0.824
101 303.00 1500.01 230 861 2.050 10000.000 0.000 0.824
102 306.00 1500.01 238 861 2.050 10000.000 0.000 0.824
103 309.00 1500.01 197 735 2.050 10000.000 0.000 0.824
104 312.00 1500.01 208 745 2.050 10000.000 0.000 0.824
105 315.00 1500.01 198 648 2.050 10000.000 0.000 0.824
106 318.00 1500.01 181 533 2.050 10000.000 0.000 0.824
107 321.00 1500.01 175 482 2.050 10000.000 0.000 0.824
108 324.00 1500.01 138 407 2.050 10000.000 0.000 0.824
109 327.00 1500.01 156 351 2.050 10000.000 0.000 0.824
110 330.00 1500.01 160 307 2.050 10000.000 0.000 0.824
111 333.00 1500.01 166 294 2.050 10000.000 0.000 0.824
112 336.00 1500.01 153 248 2.050 10000.000 0.000 0.824
113 339.00 1500.01 171 190 2.050 10000.000 0.000 0.824
114 342.00 1500.01 166 209 2.050 10000.000 0.000 0.824
115 345.00 1500.01 152 247 2.050 10000.000 0.000 0.824
116 348.00 1500.01 142 192 2.050 10000.000 0.000 0.824
117 351.00 1500.01 134 211 2.050 10000.000 0.000 0.824
118 354.00 1500.01 157 252 2.050 10000.000 0.000 0.824
119 357.00 1500.01 170 258 2.050 10000.000 0.000 0.824
120 360.00 1500.01 164 300 2.050 10000.000 0.000 0.824
121 363.00 1500.01 187 265 2.050 10000.000 0.000 0.824
122 366.00 1500.01 172 345 2.050 10000.000 0.000 0.824
123 369.00 1500.01 181 423 2.050 10000.000 0.000 0.824
124 372.00 1500.01 196 504 2.050 10000.000 0.000 0.824
125 375.00 1500.01 223 566 2.050 10000.000 0.000 0.824
126 378.00 1500.01 203 654 2.050 10000.000 0.000 0.824
127 381.00 1500.01 227 767 2.050 10000.000 0.000 0.824
128 384.00 1500.01 258 784 2.050 10000.000 0.000 0.824
129 387.00 1500.01 219 856 2.050 10000.000 0.000 0.824
130 390.00 1500.01 293 903 2.050 10000.000 0.000 0.824
131 393.00 1500.01 228 866 2.050 10000.000 0.000 0.824
132 396.00 1500.01 271 947 2.050 10000.000 0.000 0.824
133 399.00 1500.01 256 860 2.050 10000.000 0.000 0.824
134 402.00 1500.01 235 914 2.050 10000.000 0.000 0.824
