# BinNR microsec tot-time (s)  O-Beam AUX Ampl(V) f(Hz) phase(deg) chi(pos)
0 0.00 1500.02 168 522 1.000 10000.000 0.000 1.165
1 3.00 1500.02 356 1117 1.000 10000.000 0.000 1.165
2 6.00 1500.02 362 1135 1.000 10000.000 0.000 1.165
3 9.00 1500.02 357 1142 1.000 10000.000 0.000 1.165
4 12.00 1500.02 348 1118 1.000 10000.000 0.000 1.165
5 15.00 1500.02 377 1204 1.000 10000.000 0.000 1.165
6 18.00 1500.02 384 1284 1.000 10000.000 0.000 1.165
7 21.00 1500.02 372 1222 1.000 10000.000 0.000 1.165
8 24.00 1500.02 389 1290 1.000 10000.000 0.000 1.165
9 27.00 1500.02 386 1245 1.000 10000.000 0.000 1.165
10 30.00 1500.02 393 1283 1.000 10000.000 0.000 1.165
11 33.00 1500.02 392 1257 1.000 10000.000 0.000 1.165
12 36.00 1500.02 417 1319 1.000 10000.000 0.000 1.165
13 39.00 1500.02 399 1248 1.000 10000.000 0.000 1.165
14 42.00 1500.02 411 1314 1.000 10000.000 0.000 1.165
15 45.00 1500.02 457 1306 1.000 10000.000 0.000 1.165
16 48.00 1500.02 420 1273 1.000 10000.000 0.000 1.165
17 51.00 1500.02 412 1303 1.000 10000.000 0.000 1.165
18 54.00 1500.02 411 1281 1.000 10000.000 0.000 1.165
19 57.00 1500.02 412 1272 1.000 10000.000 0.000 1.165
20 60.00 1500.02 397 1272 1.000 10000.000 0.000 1.165
21 63.00 1500.02 393 1210 1.000 10000.000 0.000 1.165
22 66.00 1500.02 401 1243 1.000 10000.000 0.000 1.165
23 69.00 1500.02 391 1273 1.000 10000.000 0.000 1.165
24 72.00 1500.02 363 1266 1.000 10000.000 0.000 1.165
25 75.00 1500.02 342 1164 1.000 10000.000 0.000 1.165
26 78.00 1500.02 360 1178 1.000 10000.000 0.000 1.165
27 81.00 1500.02 333 1106 1.000 10000.000 0.000 1.165
28 84.00 1500.02 379 1097 1.000 10000.000 0.000 1.165
29 87.00 1500.02 304 1187 1.000 10000.000 0.000 1.165
30 90.00 1500.02 318 1050 1.000 10000.000 0.000 1.165
31 93.00 1500.02 318 1033 1.000 10000.000 0.000 1.165
32 96.00 1500.02 338 1096 1.000 10000.000 0.000 1.165
33 99.00 1500.02 344 1072 1.000 10000.000 0.000 1.165
34 102.00 1500.02 312 1064 1.000 10000.000 0.000 1.165
35 105.00 1500.02 368 1037 1.000 10000.000 0.000 1.165
36 108.00 1500.02 340 1158 1.000 10000.000 0.000 1.165
37 111.00 1500.02 369 1109 1.000 10000.000 0.000 1.165
38 114.00 1500.02 395 1160 1.000 10000.000 0.000 1.165
39 117.00 1500.02 386 1158 1.000 10000.000 0.000 1.165
40 120.00 1500.02 366 1250 1.000 10000.000 0.000 1.165
41 123.00 1500.02 377 1220 1.000 10000.000 0.000 1.165
42 126.00 1500.02 416 1208 1.000 10000.000 0.000 1.165
43 129.00 1500.02 402 1305 1.000 10000.000 0.000 1.165
44 132.00 1500.02 449 1238 1.000 10000.000 0.000 1.165
45 135.00 1500.02 369 1298 1.000 10000.000 0.000 1.165
46 138.00 1500.02 413 1289 1.000 10000.000 0.000 1.165
47 141.00 1500.02 423 1308 1.000 10000.000 0.000 1.165
48 144.00 1500.02 409 1367 1.000 10000.000 0.000 1.165
49 147.00 1500.02 416 1247 1.000 10000.000 0.000 1.165
50 150.00 1500.02 419 1329 1.000 10000.000 0.000 1.165
51 153.00 1500.02 387 1221 1.000 10000.000 0.000 1.165
52 156.00 1500.02 428 1342 1.000 10000.000 0.000 1.165
53 159.00 1500.02 414 1290 1.000 10000.000 0.000 1.165
54 162.00 1500.02 388 1274 1.000 10000.000 0.000 1.165
55 165.00 1500.02 383 1253 1.000 10000.000 0.000 1.165
56 168.00 1500.02 411 1205 1.000 10000.000 0.000 1.165
57 171.00 1500.02 367 1231 1.000 10000.000 0.000 1.165
58 174.00 1500.02 343 1169 1.000 10000.000 0.000 1.165
59 177.00 1500.02 374 1162 1.000 10000.000 0.000 1.165
60 180.00 1500.02 390 1114 1.000 10000.000 0.000 1.165
61 183.00 1500.02 325 1061 1.000 10000.000 0.000 1.165
62 186.00 1500.02 356 1082 1.000 10000.000 0.000 1.165
63 189.00 1500.02 343 1089 1.000 10000.000 0.000 1.165
64 192.00 1500.02 371 1075 1.000 10000.000 0.000 1.165
65 195.00 1500.02 356 1024 1.000 10000.000 0.000 1.165
66 198.00 1500.02 337 1094 1.000 10000.000 0.000 1.165
67 201.00 1500.02 328 1112 1.000 10000.000 0.000 1.165
68 204.00 1500.02 342 1101 1.000 10000.000 0.000 1.165
69 207.00 1500.02 327 1070 1.000 10000.000 0.000 1.165
70 210.00 1500.02 363 1120 1.000 10000.000 0.000 1.165
71 213.00 1500.02 349 1187 1.000 10000.000 0.000 1.165
72 216.00 1500.02 379 1138 1.000 10000.000 0.000 1.165
73 219.00 1500.02 394 1199 1.000 10000.000 0.000 1.165
74 222.00 1500.02 385 1226 1.000 10000.000 0.000 1.165
75 225.00 1500.02 391 1195 1.000 10000.000 0.000 1.165
76 228.00 1500.02 402 1229 1.000 10000.000 0.000 1.165
77 231.00 1500.02 438 1279 1.000 10000.000 0.000 1.165
78 234.00 1500.02 419 1235 1.000 10000.000 0.000 1.165
79 237.00 1500.02 425 1252 1.000 10000.000 0.000 1.165
80 240.00 1500.02 417 1325 1.000 10000.000 0.000 1.165
81 243.00 1500.02 457 1261 1.000 10000.000 0.000 1.165
82 246.00 1500.02 418 1284 1.000 10000.000 0.000 1.165
83 249.00 1500.02 409 1298 1.000 10000.000 0.000 1.165
84 252.00 1500.02 365 1263 1.000 10000.000 0.000 1.165
85 255.00 1500.02 386 1264 1.000 10000.000 0.000 1.165
86 258.00 1500.02 399 1340 1.000 10000.000 0.000 1.165
87 261.00 1500.02 405 1304 1.000 10000.000 0.000 1.165
88 264.00 1500.02 371 1284 1.000 10000.000 0.000 1.165
89 267.00 1500.02 401 1238 1.000 10000.000 0.000 1.165
90 270.00 1500.02 377 1233 1.000 10000.000 0.000 1.165
91 273.00 1500.02 355 1231 1.000 10000.000 0.000 1.165
92 276.00 1500.02 371 1204 1.000 10000.000 0.000 1.165
93 279.00 1500.02 339 1146 1.000 10000.000 0.000 1.165
94 282.00 1500.02 364 1051 1.000 10000.000 0.000 1.165
95 285.00 1500.02 338 1094 1.000 10000.000 0.000 1.165
96 288.00 1500.02 350 1120 1.000 10000.000 0.000 1.165
97 291.00 1500.02 333 1092 1.000 10000.000 0.000 1.165
98 294.00 1500.02 317 1156 1.000 10000.000 0.000 1.165
99 297.00 1500.02 342 1043 1.000 10000.000 0.000 1.165
100 300.00 1500.02 337 1087 1.000 10000.000 0.000 1.165
101 303.00 1500.02 347 1102 1.000 10000.000 0.000 1.165
102 306.00 1500.02 398 1083 1.000 10000.000 0.000 1.165
103 309.00 1500.02 349 1140 1.000 10000.000 0.000 1.165
104 312.00 1500.02 341 1121 1.000 10000.000 0.000 1.165
105 315.00 1500.02 345 1132 1.000 10000.000 0.000 1.165
106 318.00 1500.02 385 1180 1.000 10000.000 0.000 1.165
107 321.00 1500.02 364 1171 1.000 10000.000 0.000 1.165
108 324.00 1500.02 420 1253 1.000 10000.000 0.000 1.165
109 327.00 1500.02 398 1236 1.000 10000.000 0.000 1.165
110 330.00 1500.02 397 1269 1.000 10000.000 0.000 1.165
111 333.00 1500.02 407 1295 1.000 10000.000 0.000 1.165
112 336.00 1500.02 416 1243 1.000 10000.000 0.000 1.165
113 339.00 1500.02 401 1295 1.000 10000.000 0.000 1.165
114 342.00 1500.02 392 1331 1.000 10000.000 0.000 1.165
115 345.00 1500.02 387 1266 1.000 10000.000 0.000 1.165
116 348.00 1500.02 419 1316 1.000 10000.000 0.000 1.165
117 351.00 1500.02 398 1264 1.000 10000.000 0.000 1.165
118 354.00 1500.02 410 1286 1.000 10000.000 0.000 1.165
119 357.00 1500.02 436 1340 1.000 10000.000 0.000 1.165
120 360.00 1500.02 390 1283 1.000 10000.000 0.000 1.165
121 363.00 1500.02 414 1310 1.000 10000.000 0.000 1.165
122 366.00 1500.02 383 1250 1.000 10000.000 0.000 1.165
123 369.00 1500.02 377 1269 1.000 10000.000 0.000 1.165
124 372.00 1500.02 371 1225 1.000 10000.000 0.000 1.165
125 375.00 1500.02 362 1192 1.000 10000.000 0.000 1.165
126 378.00 1500.02 394 1101 1.000 10000.000 0.000 1.165
127 381.00 1500.02 363 1129 1.000 10000.000 0.000 1.165
128 384.00 1500.02 369 1151 1.000 10000.000 0.000 1.165
129 387.00 1500.02 321 1084 1.000 10000.000 0.000 1.165
130 390.00 1500.02 336 1093 1.000 10000.000 0.000 1.165
131 393.00 1500.02 345 1024 1.000 10000.000 0.000 1.165
132 396.00 1500.02 317 1083 1.000 10000.000 0.000 1.165
133 399.00 1500.02 301 1062 1.000 10000.000 0.000 1.165
134 402.00 1500.02 331 1105 1.000 10000.000 0.000 1.165
