# BinNR microsec tot-time (s)  O-Beam AUX Ampl(V) f(Hz) phase(deg) chi(pos)
0 0.00 1200.01 38 153 1.100 10000.000 0.000 -1.505
1 3.00 1200.01 104 326 1.100 10000.000 0.000 -1.505
2 6.00 1200.01 91 294 1.100 10000.000 0.000 -1.505
3 9.00 1200.01 84 247 1.100 10000.000 0.000 -1.505
4 12.00 1200.01 86 250 1.100 10000.000 0.000 -1.505
5 15.00 1200.01 83 240 1.100 10000.000 0.000 -1.505
6 18.00 1200.01 99 224 1.100 10000.000 0.000 -1.505
7 21.00 1200.01 82 245 1.100 10000.000 0.000 -1.505
8 24.00 1200.01 82 253 1.100 10000.000 0.000 -1.505
9 27.00 1200.01 92 258 1.100 10000.000 0.000 -1.505
10 30.00 1200.01 82 278 1.100 10000.000 0.000 -1.505
11 33.00 1200.01 73 253 1.100 10000.000 0.000 -1.505
12 36.00 1200.01 95 265 1.100 10000.000 0.000 -1.505
13 39.00 1200.01 85 292 1.100 10000.000 0.000 -1.505
14 42.00 1200.01 79 319 1.100 10000.000 0.000 -1.505
15 45.00 1200.01 67 321 1.100 10000.000 0.000 -1.505
16 48.00 1200.01 85 313 1.100 10000.000 0.000 -1.505
17 51.00 1200.01 81 282 1.100 10000.000 0.000 -1.505
18 54.00 1200.01 105 327 1.100 10000.000 0.000 -1.505
19 57.00 1200.01 97 328 1.100 10000.000 0.000 -1.505
20 60.00 1200.01 116 306 1.100 10000.000 0.000 -1.505
21 63.00 1200.01 101 260 1.100 10000.000 0.000 -1.505
22 66.00 1200.01 84 276 1.100 10000.000 0.000 -1.505
23 69.00 1200.01 123 238 1.100 10000.000 0.000 -1.505
24 72.00 1200.01 108 241 1.100 10000.000 0.000 -1.505
25 75.00 1200.01 112 233 1.100 10000.000 0.000 -1.505
26 78.00 1200.01 132 200 1.100 10000.000 0.000 -1.505
27 81.00 1200.01 121 217 1.100 10000.000 0.000 -1.505
28 84.00 1200.01 103 230 1.100 10000.000 0.000 -1.505
29 87.00 1200.01 107 195 1.100 10000.000 0.000 -1.505
30 90.00 1200.01 97 239 1.100 10000.000 0.000 -1.505
31 93.00 1200.01 105 234 1.100 10000.000 0.000 -1.505
32 96.00 1200.01 92 231 1.100 10000.000 0.000 -1.505
33 99.00 1200.01 91 212 1.100 10000.000 0.000 -1.505
34 102.00 1200.01 107 246 1.100 10000.000 0.000 -1.505
35 105.00 1200.01 69 218 1.100 10000.000 0.000 -1.505
36 108.00 1200.01 87 234 1.100 10000.000 0.000 -1.505
37 111.00 1200.01 84 235 1.100 10000.000 0.000 -1.505
38 114.00 1200.01 97 262 1.100 10000.000 0.000 -1.505
39 117.00 1200.01 87 245 1.100 10000.000 0.000 -1.505
40 120.00 1200.01 83 276 1.100 10000.000 0.000 -1.505
41 123.00 1200.01 97 283 1.100 10000.000 0.000 -1.505
42 126.00 1200.01 93 296 1.100 10000.000 0.000 -1.505
43 129.00 1200.01 89 300 1.100 10000.000 0.000 -1.505
44 132.00 1200.01 79 337 1.100 10000.000 0.000 -1.505
45 135.00 1200.01 80 342 1.100 10000.000 0.000 -1.505
46 138.00 1200.01 92 342 1.100 10000.000 0.000 -1.505
47 141.00 1200.01 90 312 1.100 10000.000 0.000 -1.505
48 144.00 1200.01 83 340 1.100 10000.000 0.000 -1.505
49 147.00 1200.01 100 314 1.100 10000.000 0.000 -1.505
50 150.00 1200.01 95 349 1.100 10000.000 0.000 -1.505
51 153.00 1200.01 79 301 1.100 10000.000 0.000 -1.505
52 156.00 1200.01 103 303 1.100 10000.000 0.000 -1.505
53 159.00 1200.01 90 269 1.100 10000.000 0.000 -1.505
54 162.00 1200.01 94 277 1.100 10000.000 0.000 -1.505
55 165.00 1200.01 95 263 1.100 10000.000 0.000 -1.505
56 168.00 1200.01 115 236 1.100 10000.000 0.000 -1.505
57 171.00 1200.01 90 253 1.100 10000.000 0.000 -1.505
58 174.00 1200.01 93 224 1.100 10000.000 0.000 -1.505
59 177.00 1200.01 98 234 1.100 10000.000 0.000 -1.505
60 180.00 1200.01 110 220 1.100 10000.000 0.000 -1.505
61 183.00 1200.01 104 217 1.100 10000.000 0.000 -1.505
62 186.00 1200.01 100 184 1.100 10000.000 0.000 -1.505
63 189.00 1200.01 104 219 1.100 10000.000 0.000 -1.505
64 192.00 1200.01 102 223 1.100 10000.000 0.000 -1.505
65 195.00 1200.01 99 210 1.100 10000.000 0.000 -1.505
66 198.00 1200.01 91 245 1.100 10000.000 0.000 -1.505
67 201.00 1200.01 98 235 1.100 10000.000 0.000 -1.505
68 204.00 1200.01 83 223 1.100 10000.000 0.000 -1.505
69 207.00 1200.01 92 237 1.100 10000.000 0.000 -1.505
70 210.00 1200.01 83 235 1.100 10000.000 0.000 -1.505
71 213.00 1200.01 96 252 1.100 10000.000 0.000 -1.505
72 216.00 1200.01 76 258 1.100 10000.000 0.000 -1.505
73 219.00 1200.01 82 275 1.100 10000.000 0.000 -1.505
74 222.00 1200.01 78 270 1.100 10000.000 0.000 -1.505
75 225.00 1200.01 82 319 1.100 10000.000 0.000 -1.505
76 228.00 1200.01 76 330 1.100 10000.000 0.000 -1.505
77 231.00 1200.01 100 317 1.100 10000.000 0.000 -1.505
78 234.00 1200.01 91 318 1.100 10000.000 0.000 -1.505
79 237.00 1200.01 77 312 1.100 10000.000 0.000 -1.505
80 240.00 1200.01 79 306 1.100 10000.000 0.000 -1.505
81 243.00 1200.01 88 335 1.100 10000.000 0.000 -1.505
82 246.00 1200.01 84 350 1.100 10000.000 0.000 -1.505
83 249.00 1200.01 78 310 1.100 10000.000 0.000 -1.505
84 252.00 1200.01 95 276 1.100 10000.000 0.000 -1.505
85 255.00 1200.01 84 264 1.100 10000.000 0.000 -1.505
86 258.00 1200.01 90 278 1.100 10000.000 0.000 -1.505
87 261.00 1200.01 102 235 1.100 10000.000 0.000 -1.505
88 264.00 1200.01 92 280 1.100 10000.000 0.000 -1.505
89 267.00 1200.01 102 258 1.100 10000.000 0.000 -1.505
90 270.00 1200.01 86 258 1.100 10000.000 0.000 -1.505
91 273.00 1200.01 91 245 1.100 10000.000 0.000 -1.505
92 276.00 1200.01 87 223 1.100 10000.000 0.000 -1.505
93 279.00 1200.01 125 244 1.100 10000.000 0.000 -1.505
94 282.00 1200.01 77 214 1.100 10000.000 0.000 -1.505
95 285.00 1200.01 79 198 1.100 10000.000 0.000 -1.505
96 288.00 1200.01 90 226 1.100 10000.000 0.000 -1.505
97 291.00 1200.01 100 213 1.100 10000.000 0.000 -1.505
98 294.00 1200.01 92 231 1.100 10000.000 0.000 -1.505
99 297.00 1200.01 101 217 1.100 10000.000 0.000 -1.505
100 300.00 1200.01 103 186 1.100 10000.000 0.000 -1.505
101 303.00 1200.01 97 242 1.100 10000.000 0.000 -1.505
102 306.00 1200.01 107 234 1.100 10000.000 0.000 -1.505
103 309.00 1200.01 96 248 1.100 10000.000 0.000 -1.505
104 312.00 1200.01 99 274 1.100 10000.000 0.000 -1.505
105 315.00 1200.01 96 259 1.100 10000.000 0.000 -1.505
106 318.00 1200.01 98 302 1.100 10000.000 0.000 -1.505
107 321.00 1200.01 98 311 1.100 10000.000 0.000 -1.505
108 324.00 1200.01 101 298 1.100 10000.000 0.000 -1.505
109 327.00 1200.01 92 283 1.100 10000.000 0.000 -1.505
110 330.00 1200.01 102 317 1.100 10000.000 0.000 -1.505
111 333.00 1200.01 96 308 1.100 10000.000 0.000 -1.505
112 336.00 1200.01 92 317 1.100 10000.000 0.000 -1.505
113 339.00 1200.01 95 308 1.100 10000.000 0.000 -1.505
114 342.00 1200.01 84 303 1.100 10000.000 0.000 -1.505
115 345.00 1200.01 72 308 1.100 10000.000 0.000 -1.505
116 348.00 1200.01 90 316 1.100 10000.000 0.000 -1.505
117 351.00 1200.01 88 292 1.100 10000.000 0.000 -1.505
118 354.00 1200.01 84 286 1.100 10000.000 0.000 -1.505
119 357.00 1200.01 74 274 1.100 10000.000 0.000 -1.505
120 360.00 1200.01 91 281 1.100 10000.000 0.000 -1.505
121 363.00 1200.01 84 240 1.100 10000.000 0.000 -1.505
122 366.00 1200.01 77 227 1.100 10000.000 0.000 -1.505
123 369.00 1200.01 88 258 1.100 10000.000 0.000 -1.505
124 372.00 1200.01 88 220 1.100 10000.000 0.000 -1.505
125 375.00 1200.01 85 216 1.100 10000.000 0.000 -1.505
126 378.00 1200.01 91 206 1.100 10000.000 0.000 -1.505
127 381.00 1200.01 101 216 1.100 10000.000 0.000 -1.505
128 384.00 1200.01 85 200 1.100 10000.000 0.000 -1.505
129 387.00 1200.01 107 231 1.100 10000.000 0.000 -1.505
130 390.00 1200.01 106 248 1.100 10000.000 0.000 -1.505
131 393.00 1200.01 98 182 1.100 10000.000 0.000 -1.505
132 396.00 1200.01 93 214 1.100 10000.000 0.000 -1.505
133 399.00 1200.01 98 224 1.100 10000.000 0.000 -1.505
134 402.00 1200.01 108 239 1.100 10000.000 0.000 -1.505
135 405.00 1200.01 102 220 1.100 10000.000 0.000 -1.505
136 408.00 1200.01 96 235 1.100 10000.000 0.000 -1.505
137 411.00 1200.01 103 254 1.100 10000.000 0.000 -1.505
138 414.00 1200.01 110 282 1.100 10000.000 0.000 -1.505
139 417.00 1200.01 93 276 1.100 10000.000 0.000 -1.505
140 420.00 1200.01 82 293 1.100 10000.000 0.000 -1.505
141 423.00 1200.01 109 292 1.100 10000.000 0.000 -1.505
142 426.00 1200.01 88 283 1.100 10000.000 0.000 -1.505
143 429.00 1200.01 93 299 1.100 10000.000 0.000 -1.505
144 432.00 1200.01 76 312 1.100 10000.000 0.000 -1.505
