# BinNR microsec tot-time (s)  O-Beam AUX Ampl(V) f(Hz) phase(deg) chi(pos)
0 0.00 1200.00 162 488 1.100 10000.000 0.000 1.165
1 3.00 1200.00 311 998 1.100 10000.000 0.000 1.165
2 6.00 1200.00 302 922 1.100 10000.000 0.000 1.165
3 9.00 1200.00 310 941 1.100 10000.000 0.000 1.165
4 12.00 1200.00 283 1007 1.100 10000.000 0.000 1.165
5 15.00 1200.00 292 892 1.100 10000.000 0.000 1.165
6 18.00 1200.00 296 908 1.100 10000.000 0.000 1.165
7 21.00 1200.00 304 866 1.100 10000.000 0.000 1.165
8 24.00 1200.00 292 917 1.100 10000.000 0.000 1.165
9 27.00 1200.00 285 946 1.100 10000.000 0.000 1.165
10 30.00 1200.00 264 910 1.100 10000.000 0.000 1.165
11 33.00 1200.00 305 960 1.100 10000.000 0.000 1.165
12 36.00 1200.00 283 936 1.100 10000.000 0.000 1.165
13 39.00 1200.00 278 979 1.100 10000.000 0.000 1.165
14 42.00 1200.00 282 899 1.100 10000.000 0.000 1.165
15 45.00 1200.00 295 1008 1.100 10000.000 0.000 1.165
16 48.00 1200.00 291 972 1.100 10000.000 0.000 1.165
17 51.00 1200.00 306 969 1.100 10000.000 0.000 1.165
18 54.00 1200.00 295 915 1.100 10000.000 0.000 1.165
19 57.00 1200.00 286 964 1.100 10000.000 0.000 1.165
20 60.00 1200.00 338 930 1.100 10000.000 0.000 1.165
21 63.00 1200.00 310 938 1.100 10000.000 0.000 1.165
22 66.00 1200.00 295 994 1.100 10000.000 0.000 1.165
23 69.00 1200.00 284 984 1.100 10000.000 0.000 1.165
24 72.00 1200.00 327 928 1.100 10000.000 0.000 1.165
25 75.00 1200.00 326 920 1.100 10000.000 0.000 1.165
26 78.00 1200.00 311 925 1.100 10000.000 0.000 1.165
27 81.00 1200.00 312 902 1.100 10000.000 0.000 1.165
28 84.00 1200.00 304 862 1.100 10000.000 0.000 1.165
29 87.00 1200.00 312 880 1.100 10000.000 0.000 1.165
30 90.00 1200.00 321 914 1.100 10000.000 0.000 1.165
31 93.00 1200.00 293 942 1.100 10000.000 0.000 1.165
32 96.00 1200.00 305 904 1.100 10000.000 0.000 1.165
33 99.00 1200.00 301 921 1.100 10000.000 0.000 1.165
34 102.00 1200.00 332 919 1.100 10000.000 0.000 1.165
35 105.00 1200.00 293 937 1.100 10000.000 0.000 1.165
36 108.00 1200.00 299 955 1.100 10000.000 0.000 1.165
37 111.00 1200.00 265 946 1.100 10000.000 0.000 1.165
38 114.00 1200.00 287 949 1.100 10000.000 0.000 1.165
39 117.00 1200.00 275 937 1.100 10000.000 0.000 1.165
40 120.00 1200.00 260 997 1.100 10000.000 0.000 1.165
41 123.00 1200.00 264 1008 1.100 10000.000 0.000 1.165
42 126.00 1200.00 301 976 1.100 10000.000 0.000 1.165
43 129.00 1200.00 282 939 1.100 10000.000 0.000 1.165
44 132.00 1200.00 266 999 1.100 10000.000 0.000 1.165
45 135.00 1200.00 256 976 1.100 10000.000 0.000 1.165
46 138.00 1200.00 283 966 1.100 10000.000 0.000 1.165
47 141.00 1200.00 286 927 1.100 10000.000 0.000 1.165
48 144.00 1200.00 322 968 1.100 10000.000 0.000 1.165
49 147.00 1200.00 296 972 1.100 10000.000 0.000 1.165
50 150.00 1200.00 328 968 1.100 10000.000 0.000 1.165
51 153.00 1200.00 309 1014 1.100 10000.000 0.000 1.165
52 156.00 1200.00 314 988 1.100 10000.000 0.000 1.165
53 159.00 1200.00 299 971 1.100 10000.000 0.000 1.165
54 162.00 1200.00 335 986 1.100 10000.000 0.000 1.165
55 165.00 1200.00 306 855 1.100 10000.000 0.000 1.165
56 168.00 1200.00 304 918 1.100 10000.000 0.000 1.165
57 171.00 1200.00 296 944 1.100 10000.000 0.000 1.165
58 174.00 1200.00 331 898 1.100 10000.000 0.000 1.165
59 177.00 1200.00 299 901 1.100 10000.000 0.000 1.165
60 180.00 1200.00 333 923 1.100 10000.000 0.000 1.165
61 183.00 1200.00 322 894 1.100 10000.000 0.000 1.165
62 186.00 1200.00 311 927 1.100 10000.000 0.000 1.165
63 189.00 1200.00 306 863 1.100 10000.000 0.000 1.165
64 192.00 1200.00 301 865 1.100 10000.000 0.000 1.165
65 195.00 1200.00 308 885 1.100 10000.000 0.000 1.165
66 198.00 1200.00 303 949 1.100 10000.000 0.000 1.165
67 201.00 1200.00 283 952 1.100 10000.000 0.000 1.165
68 204.00 1200.00 286 956 1.100 10000.000 0.000 1.165
69 207.00 1200.00 332 948 1.100 10000.000 0.000 1.165
70 210.00 1200.00 309 951 1.100 10000.000 0.000 1.165
71 213.00 1200.00 294 925 1.100 10000.000 0.000 1.165
72 216.00 1200.00 284 995 1.100 10000.000 0.000 1.165
73 219.00 1200.00 313 943 1.100 10000.000 0.000 1.165
74 222.00 1200.00 272 947 1.100 10000.000 0.000 1.165
75 225.00 1200.00 260 958 1.100 10000.000 0.000 1.165
76 228.00 1200.00 296 961 1.100 10000.000 0.000 1.165
77 231.00 1200.00 281 999 1.100 10000.000 0.000 1.165
78 234.00 1200.00 249 1031 1.100 10000.000 0.000 1.165
79 237.00 1200.00 281 989 1.100 10000.000 0.000 1.165
80 240.00 1200.00 295 987 1.100 10000.000 0.000 1.165
81 243.00 1200.00 258 990 1.100 10000.000 0.000 1.165
82 246.00 1200.00 343 986 1.100 10000.000 0.000 1.165
83 249.00 1200.00 299 995 1.100 10000.000 0.000 1.165
84 252.00 1200.00 293 975 1.100 10000.000 0.000 1.165
85 255.00 1200.00 322 934 1.100 10000.000 0.000 1.165
86 258.00 1200.00 330 1006 1.100 10000.000 0.000 1.165
87 261.00 1200.00 299 939 1.100 10000.000 0.000 1.165
88 264.00 1200.00 316 946 1.100 10000.000 0.000 1.165
89 267.00 1200.00 314 1003 1.100 10000.000 0.000 1.165
90 270.00 1200.00 342 931 1.100 10000.000 0.000 1.165
91 273.00 1200.00 309 895 1.100 10000.000 0.000 1.165
92 276.00 1200.00 339 949 1.100 10000.000 0.000 1.165
93 279.00 1200.00 299 932 1.100 10000.000 0.000 1.165
94 282.00 1200.00 302 901 1.100 10000.000 0.000 1.165
95 285.00 1200.00 300 888 1.100 10000.000 0.000 1.165
96 288.00 1200.00 319 929 1.100 10000.000 0.000 1.165
97 291.00 1200.00 292 871 1.100 10000.000 0.000 1.165
98 294.00 1200.00 311 924 1.100 10000.000 0.000 1.165
99 297.00 1200.00 297 849 1.100 10000.000 0.000 1.165
100 300.00 1200.00 298 905 1.100 10000.000 0.000 1.165
101 303.00 1200.00 303 899 1.100 10000.000 0.000 1.165
102 306.00 1200.00 318 895 1.100 10000.000 0.000 1.165
103 309.00 1200.00 313 1014 1.100 10000.000 0.000 1.165
104 312.00 1200.00 315 930 1.100 10000.000 0.000 1.165
105 315.00 1200.00 320 930 1.100 10000.000 0.000 1.165
106 318.00 1200.00 332 961 1.100 10000.000 0.000 1.165
107 321.00 1200.00 282 993 1.100 10000.000 0.000 1.165
108 324.00 1200.00 295 976 1.100 10000.000 0.000 1.165
109 327.00 1200.00 299 953 1.100 10000.000 0.000 1.165
110 330.00 1200.00 302 966 1.100 10000.000 0.000 1.165
111 333.00 1200.00 304 1017 1.100 10000.000 0.000 1.165
112 336.00 1200.00 302 982 1.100 10000.000 0.000 1.165
113 339.00 1200.00 269 1015 1.100 10000.000 0.000 1.165
114 342.00 1200.00 298 906 1.100 10000.000 0.000 1.165
115 345.00 1200.00 291 958 1.100 10000.000 0.000 1.165
116 348.00 1200.00 281 1006 1.100 10000.000 0.000 1.165
117 351.00 1200.00 265 923 1.100 10000.000 0.000 1.165
118 354.00 1200.00 288 1021 1.100 10000.000 0.000 1.165
119 357.00 1200.00 283 938 1.100 10000.000 0.000 1.165
120 360.00 1200.00 259 961 1.100 10000.000 0.000 1.165
121 363.00 1200.00 283 954 1.100 10000.000 0.000 1.165
122 366.00 1200.00 266 962 1.100 10000.000 0.000 1.165
123 369.00 1200.00 289 888 1.100 10000.000 0.000 1.165
124 372.00 1200.00 284 898 1.100 10000.000 0.000 1.165
125 375.00 1200.00 300 891 1.100 10000.000 0.000 1.165
126 378.00 1200.00 326 898 1.100 10000.000 0.000 1.165
127 381.00 1200.00 298 905 1.100 10000.000 0.000 1.165
128 384.00 1200.00 305 946 1.100 10000.000 0.000 1.165
129 387.00 1200.00 305 875 1.100 10000.000 0.000 1.165
130 390.00 1200.00 333 940 1.100 10000.000 0.000 1.165
131 393.00 1200.00 324 797 1.100 10000.000 0.000 1.165
132 396.00 1200.00 328 952 1.100 10000.000 0.000 1.165
133 399.00 1200.00 288 889 1.100 10000.000 0.000 1.165
134 402.00 1200.00 326 881 1.100 10000.000 0.000 1.165
135 405.00 1200.00 334 941 1.100 10000.000 0.000 1.165
136 408.00 1200.00 309 901 1.100 10000.000 0.000 1.165
137 411.00 1200.00 294 930 1.100 10000.000 0.000 1.165
138 414.00 1200.00 325 932 1.100 10000.000 0.000 1.165
139 417.00 1200.00 305 950 1.100 10000.000 0.000 1.165
140 420.00 1200.00 348 1008 1.100 10000.000 0.000 1.165
141 423.00 1200.00 310 992 1.100 10000.000 0.000 1.165
142 426.00 1200.00 285 923 1.100 10000.000 0.000 1.165
143 429.00 1200.00 271 957 1.100 10000.000 0.000 1.165
144 432.00 1200.00 350 988 1.100 10000.000 0.000 1.165
