# BinNR microsec tot-time (s)  O-Beam AUX Ampl(V) f(Hz) phase(deg) chi(pos)
0 0.00 1200.01 192 513 1.100 10000.000 0.000 -0.670
1 3.00 1200.01 361 961 1.100 10000.000 0.000 -0.670
2 6.00 1200.01 351 1020 1.100 10000.000 0.000 -0.670
3 9.00 1200.01 391 1012 1.100 10000.000 0.000 -0.670
4 12.00 1200.01 372 1014 1.100 10000.000 0.000 -0.670
5 15.00 1200.01 353 1025 1.100 10000.000 0.000 -0.670
6 18.00 1200.01 332 953 1.100 10000.000 0.000 -0.670
7 21.00 1200.01 378 1016 1.100 10000.000 0.000 -0.670
8 24.00 1200.01 367 1058 1.100 10000.000 0.000 -0.670
9 27.00 1200.01 319 1007 1.100 10000.000 0.000 -0.670
10 30.00 1200.01 339 1036 1.100 10000.000 0.000 -0.670
11 33.00 1200.01 348 925 1.100 10000.000 0.000 -0.670
12 36.00 1200.01 358 932 1.100 10000.000 0.000 -0.670
13 39.00 1200.01 362 945 1.100 10000.000 0.000 -0.670
14 42.00 1200.01 368 1078 1.100 10000.000 0.000 -0.670
15 45.00 1200.01 329 954 1.100 10000.000 0.000 -0.670
16 48.00 1200.01 367 1044 1.100 10000.000 0.000 -0.670
17 51.00 1200.01 334 1027 1.100 10000.000 0.000 -0.670
18 54.00 1200.01 359 1005 1.100 10000.000 0.000 -0.670
19 57.00 1200.01 305 987 1.100 10000.000 0.000 -0.670
20 60.00 1200.01 339 1028 1.100 10000.000 0.000 -0.670
21 63.00 1200.01 362 1038 1.100 10000.000 0.000 -0.670
22 66.00 1200.01 362 1017 1.100 10000.000 0.000 -0.670
23 69.00 1200.01 338 978 1.100 10000.000 0.000 -0.670
24 72.00 1200.01 334 1013 1.100 10000.000 0.000 -0.670
25 75.00 1200.01 342 1005 1.100 10000.000 0.000 -0.670
26 78.00 1200.01 348 1046 1.100 10000.000 0.000 -0.670
27 81.00 1200.01 384 993 1.100 10000.000 0.000 -0.670
28 84.00 1200.01 348 1040 1.100 10000.000 0.000 -0.670
29 87.00 1200.01 390 987 1.100 10000.000 0.000 -0.670
30 90.00 1200.01 370 1043 1.100 10000.000 0.000 -0.670
31 93.00 1200.01 337 1029 1.100 10000.000 0.000 -0.670
32 96.00 1200.01 336 1029 1.100 10000.000 0.000 -0.670
33 99.00 1200.01 316 982 1.100 10000.000 0.000 -0.670
34 102.00 1200.01 377 1067 1.100 10000.000 0.000 -0.670
35 105.00 1200.01 333 1007 1.100 10000.000 0.000 -0.670
36 108.00 1200.01 369 973 1.100 10000.000 0.000 -0.670
37 111.00 1200.01 334 992 1.100 10000.000 0.000 -0.670
38 114.00 1200.01 346 1014 1.100 10000.000 0.000 -0.670
39 117.00 1200.01 323 981 1.100 10000.000 0.000 -0.670
40 120.00 1200.01 340 1020 1.100 10000.000 0.000 -0.670
41 123.00 1200.01 314 1020 1.100 10000.000 0.000 -0.670
42 126.00 1200.01 351 1013 1.100 10000.000 0.000 -0.670
43 129.00 1200.01 333 976 1.100 10000.000 0.000 -0.670
44 132.00 1200.01 337 989 1.100 10000.000 0.000 -0.670
45 135.00 1200.01 371 933 1.100 10000.000 0.000 -0.670
46 138.00 1200.01 353 1025 1.100 10000.000 0.000 -0.670
47 141.00 1200.01 367 918 1.100 10000.000 0.000 -0.670
48 144.00 1200.01 349 1013 1.100 10000.000 0.000 -0.670
49 147.00 1200.01 337 1007 1.100 10000.000 0.000 -0.670
50 150.00 1200.01 358 992 1.100 10000.000 0.000 -0.670
51 153.00 1200.01 342 952 1.100 10000.000 0.000 -0.670
52 156.00 1200.01 322 1056 1.100 10000.000 0.000 -0.670
53 159.00 1200.01 343 987 1.100 10000.000 0.000 -0.670
54 162.00 1200.01 333 1014 1.100 10000.000 0.000 -0.670
55 165.00 1200.01 355 1023 1.100 10000.000 0.000 -0.670
56 168.00 1200.01 339 989 1.100 10000.000 0.000 -0.670
57 171.00 1200.01 344 1008 1.100 10000.000 0.000 -0.670
58 174.00 1200.01 346 980 1.100 10000.000 0.000 -0.670
59 177.00 1200.01 361 1040 1.100 10000.000 0.000 -0.670
60 180.00 1200.01 343 961 1.100 10000.000 0.000 -0.670
61 183.00 1200.01 314 954 1.100 10000.000 0.000 -0.670
62 186.00 1200.01 351 1009 1.100 10000.000 0.000 -0.670
63 189.00 1200.01 366 953 1.100 10000.000 0.000 -0.670
64 192.00 1200.01 343 1009 1.100 10000.000 0.000 -0.670
65 195.00 1200.01 362 987 1.100 10000.000 0.000 -0.670
66 198.00 1200.01 332 1015 1.100 10000.000 0.000 -0.670
67 201.00 1200.01 359 933 1.100 10000.000 0.000 -0.670
68 204.00 1200.01 354 1041 1.100 10000.000 0.000 -0.670
69 207.00 1200.01 347 1011 1.100 10000.000 0.000 -0.670
70 210.00 1200.01 383 1038 1.100 10000.000 0.000 -0.670
71 213.00 1200.01 383 978 1.100 10000.000 0.000 -0.670
72 216.00 1200.01 331 950 1.100 10000.000 0.000 -0.670
73 219.00 1200.01 347 989 1.100 10000.000 0.000 -0.670
74 222.00 1200.01 382 988 1.100 10000.000 0.000 -0.670
75 225.00 1200.01 346 898 1.100 10000.000 0.000 -0.670
76 228.00 1200.01 347 985 1.100 10000.000 0.000 -0.670
77 231.00 1200.01 332 1017 1.100 10000.000 0.000 -0.670
78 234.00 1200.01 391 1043 1.100 10000.000 0.000 -0.670
79 237.00 1200.01 346 927 1.100 10000.000 0.000 -0.670
80 240.00 1200.01 345 1029 1.100 10000.000 0.000 -0.670
81 243.00 1200.01 327 1050 1.100 10000.000 0.000 -0.670
82 246.00 1200.01 336 956 1.100 10000.000 0.000 -0.670
83 249.00 1200.01 372 925 1.100 10000.000 0.000 -0.670
84 252.00 1200.01 344 1053 1.100 10000.000 0.000 -0.670
85 255.00 1200.01 329 930 1.100 10000.000 0.000 -0.670
86 258.00 1200.01 325 1038 1.100 10000.000 0.000 -0.670
87 261.00 1200.01 330 992 1.100 10000.000 0.000 -0.670
88 264.00 1200.01 378 963 1.100 10000.000 0.000 -0.670
89 267.00 1200.01 346 1096 1.100 10000.000 0.000 -0.670
90 270.00 1200.01 335 981 1.100 10000.000 0.000 -0.670
91 273.00 1200.01 352 981 1.100 10000.000 0.000 -0.670
92 276.00 1200.01 387 1008 1.100 10000.000 0.000 -0.670
93 279.00 1200.01 385 980 1.100 10000.000 0.000 -0.670
94 282.00 1200.01 359 1033 1.100 10000.000 0.000 -0.670
95 285.00 1200.01 356 983 1.100 10000.000 0.000 -0.670
96 288.00 1200.01 348 1007 1.100 10000.000 0.000 -0.670
97 291.00 1200.01 331 1025 1.100 10000.000 0.000 -0.670
98 294.00 1200.01 347 1027 1.100 10000.000 0.000 -0.670
99 297.00 1200.01 336 1008 1.100 10000.000 0.000 -0.670
100 300.00 1200.01 342 977 1.100 10000.000 0.000 -0.670
101 303.00 1200.01 345 945 1.100 10000.000 0.000 -0.670
102 306.00 1200.01 385 991 1.100 10000.000 0.000 -0.670
103 309.00 1200.01 320 1034 1.100 10000.000 0.000 -0.670
104 312.00 1200.01 307 953 1.100 10000.000 0.000 -0.670
105 315.00 1200.01 329 1035 1.100 10000.000 0.000 -0.670
106 318.00 1200.01 363 1033 1.100 10000.000 0.000 -0.670
107 321.00 1200.01 331 979 1.100 10000.000 0.000 -0.670
108 324.00 1200.01 343 945 1.100 10000.000 0.000 -0.670
109 327.00 1200.01 366 970 1.100 10000.000 0.000 -0.670
110 330.00 1200.01 335 1014 1.100 10000.000 0.000 -0.670
111 333.00 1200.01 334 956 1.100 10000.000 0.000 -0.670
112 336.00 1200.01 323 950 1.100 10000.000 0.000 -0.670
113 339.00 1200.01 363 987 1.100 10000.000 0.000 -0.670
114 342.00 1200.01 358 953 1.100 10000.000 0.000 -0.670
115 345.00 1200.01 363 985 1.100 10000.000 0.000 -0.670
116 348.00 1200.01 379 993 1.100 10000.000 0.000 -0.670
117 351.00 1200.01 343 1000 1.100 10000.000 0.000 -0.670
118 354.00 1200.01 364 1059 1.100 10000.000 0.000 -0.670
119 357.00 1200.01 300 965 1.100 10000.000 0.000 -0.670
120 360.00 1200.01 357 1012 1.100 10000.000 0.000 -0.670
121 363.00 1200.01 341 1050 1.100 10000.000 0.000 -0.670
122 366.00 1200.01 321 984 1.100 10000.000 0.000 -0.670
123 369.00 1200.01 330 1061 1.100 10000.000 0.000 -0.670
124 372.00 1200.01 327 1012 1.100 10000.000 0.000 -0.670
125 375.00 1200.01 340 1028 1.100 10000.000 0.000 -0.670
126 378.00 1200.01 332 1033 1.100 10000.000 0.000 -0.670
127 381.00 1200.01 333 987 1.100 10000.000 0.000 -0.670
128 384.00 1200.01 337 1048 1.100 10000.000 0.000 -0.670
129 387.00 1200.01 370 1012 1.100 10000.000 0.000 -0.670
130 390.00 1200.01 361 1028 1.100 10000.000 0.000 -0.670
131 393.00 1200.01 375 968 1.100 10000.000 0.000 -0.670
132 396.00 1200.01 337 1034 1.100 10000.000 0.000 -0.670
133 399.00 1200.01 353 1052 1.100 10000.000 0.000 -0.670
134 402.00 1200.01 379 1005 1.100 10000.000 0.000 -0.670
135 405.00 1200.01 338 1010 1.100 10000.000 0.000 -0.670
136 408.00 1200.01 354 1033 1.100 10000.000 0.000 -0.670
137 411.00 1200.01 329 1003 1.100 10000.000 0.000 -0.670
138 414.00 1200.01 364 978 1.100 10000.000 0.000 -0.670
139 417.00 1200.01 355 1029 1.100 10000.000 0.000 -0.670
140 420.00 1200.01 356 974 1.100 10000.000 0.000 -0.670
141 423.00 1200.01 361 1053 1.100 10000.000 0.000 -0.670
142 426.00 1200.01 354 1001 1.100 10000.000 0.000 -0.670
143 429.00 1200.01 339 957 1.100 10000.000 0.000 -0.670
144 432.00 1200.01 348 1028 1.100 10000.000 0.000 -0.670
