# BinNR microsec tot-time (s)  O-Beam AUX Ampl(V) f(Hz) phase(deg) chi(pos)
0 0.00 1200.02 180 513 1.100 10000.000 0.000 -0.835
1 3.00 1200.02 326 951 1.100 10000.000 0.000 -0.835
2 6.00 1200.02 294 1018 1.100 10000.000 0.000 -0.835
3 9.00 1200.02 281 997 1.100 10000.000 0.000 -0.835
4 12.00 1200.02 315 1029 1.100 10000.000 0.000 -0.835
5 15.00 1200.02 257 1001 1.100 10000.000 0.000 -0.835
6 18.00 1200.02 319 1008 1.100 10000.000 0.000 -0.835
7 21.00 1200.02 286 955 1.100 10000.000 0.000 -0.835
8 24.00 1200.02 332 1014 1.100 10000.000 0.000 -0.835
9 27.00 1200.02 291 945 1.100 10000.000 0.000 -0.835
10 30.00 1200.02 291 953 1.100 10000.000 0.000 -0.835
11 33.00 1200.02 292 986 1.100 10000.000 0.000 -0.835
12 36.00 1200.02 317 1001 1.100 10000.000 0.000 -0.835
13 39.00 1200.02 292 943 1.100 10000.000 0.000 -0.835
14 42.00 1200.02 324 1006 1.100 10000.000 0.000 -0.835
15 45.00 1200.02 301 978 1.100 10000.000 0.000 -0.835
16 48.00 1200.02 334 952 1.100 10000.000 0.000 -0.835
17 51.00 1200.02 289 925 1.100 10000.000 0.000 -0.835
18 54.00 1200.02 318 975 1.100 10000.000 0.000 -0.835
19 57.00 1200.02 333 986 1.100 10000.000 0.000 -0.835
20 60.00 1200.02 327 985 1.100 10000.000 0.000 -0.835
21 63.00 1200.02 318 961 1.100 10000.000 0.000 -0.835
22 66.00 1200.02 338 945 1.100 10000.000 0.000 -0.835
23 69.00 1200.02 316 938 1.100 10000.000 0.000 -0.835
24 72.00 1200.02 301 954 1.100 10000.000 0.000 -0.835
25 75.00 1200.02 331 954 1.100 10000.000 0.000 -0.835
26 78.00 1200.02 332 997 1.100 10000.000 0.000 -0.835
27 81.00 1200.02 346 942 1.100 10000.000 0.000 -0.835
28 84.00 1200.02 334 989 1.100 10000.000 0.000 -0.835
29 87.00 1200.02 318 968 1.100 10000.000 0.000 -0.835
30 90.00 1200.02 318 959 1.100 10000.000 0.000 -0.835
31 93.00 1200.02 287 916 1.100 10000.000 0.000 -0.835
32 96.00 1200.02 320 965 1.100 10000.000 0.000 -0.835
33 99.00 1200.02 302 952 1.100 10000.000 0.000 -0.835
34 102.00 1200.02 310 924 1.100 10000.000 0.000 -0.835
35 105.00 1200.02 289 959 1.100 10000.000 0.000 -0.835
36 108.00 1200.02 325 961 1.100 10000.000 0.000 -0.835
37 111.00 1200.02 329 955 1.100 10000.000 0.000 -0.835
38 114.00 1200.02 312 1012 1.100 10000.000 0.000 -0.835
39 117.00 1200.02 299 1005 1.100 10000.000 0.000 -0.835
40 120.00 1200.02 317 990 1.100 10000.000 0.000 -0.835
41 123.00 1200.02 286 1009 1.100 10000.000 0.000 -0.835
42 126.00 1200.02 289 965 1.100 10000.000 0.000 -0.835
43 129.00 1200.02 289 974 1.100 10000.000 0.000 -0.835
44 132.00 1200.02 291 1036 1.100 10000.000 0.000 -0.835
45 135.00 1200.02 307 945 1.100 10000.000 0.000 -0.835
46 138.00 1200.02 314 948 1.100 10000.000 0.000 -0.835
47 141.00 1200.02 296 1036 1.100 10000.000 0.000 -0.835
48 144.00 1200.02 326 1031 1.100 10000.000 0.000 -0.835
49 147.00 1200.02 289 975 1.100 10000.000 0.000 -0.835
50 150.00 1200.02 299 990 1.100 10000.000 0.000 -0.835
51 153.00 1200.02 303 999 1.100 10000.000 0.000 -0.835
52 156.00 1200.02 322 1014 1.100 10000.000 0.000 -0.835
53 159.00 1200.02 277 976 1.100 10000.000 0.000 -0.835
54 162.00 1200.02 300 950 1.100 10000.000 0.000 -0.835
55 165.00 1200.02 342 971 1.100 10000.000 0.000 -0.835
56 168.00 1200.02 310 955 1.100 10000.000 0.000 -0.835
57 171.00 1200.02 304 902 1.100 10000.000 0.000 -0.835
58 174.00 1200.02 333 979 1.100 10000.000 0.000 -0.835
59 177.00 1200.02 338 961 1.100 10000.000 0.000 -0.835
60 180.00 1200.02 346 950 1.100 10000.000 0.000 -0.835
61 183.00 1200.02 324 951 1.100 10000.000 0.000 -0.835
62 186.00 1200.02 323 949 1.100 10000.000 0.000 -0.835
63 189.00 1200.02 328 919 1.100 10000.000 0.000 -0.835
64 192.00 1200.02 335 916 1.100 10000.000 0.000 -0.835
65 195.00 1200.02 290 902 1.100 10000.000 0.000 -0.835
66 198.00 1200.02 320 971 1.100 10000.000 0.000 -0.835
67 201.00 1200.02 311 982 1.100 10000.000 0.000 -0.835
68 204.00 1200.02 301 970 1.100 10000.000 0.000 -0.835
69 207.00 1200.02 285 990 1.100 10000.000 0.000 -0.835
70 210.00 1200.02 329 969 1.100 10000.000 0.000 -0.835
71 213.00 1200.02 333 953 1.100 10000.000 0.000 -0.835
72 216.00 1200.02 319 970 1.100 10000.000 0.000 -0.835
73 219.00 1200.02 323 975 1.100 10000.000 0.000 -0.835
74 222.00 1200.02 306 1027 1.100 10000.000 0.000 -0.835
75 225.00 1200.02 308 1024 1.100 10000.000 0.000 -0.835
76 228.00 1200.02 313 1004 1.100 10000.000 0.000 -0.835
77 231.00 1200.02 245 1030 1.100 10000.000 0.000 -0.835
78 234.00 1200.02 277 1020 1.100 10000.000 0.000 -0.835
79 237.00 1200.02 297 970 1.100 10000.000 0.000 -0.835
80 240.00 1200.02 326 984 1.100 10000.000 0.000 -0.835
81 243.00 1200.02 316 985 1.100 10000.000 0.000 -0.835
82 246.00 1200.02 332 935 1.100 10000.000 0.000 -0.835
83 249.00 1200.02 282 990 1.100 10000.000 0.000 -0.835
84 252.00 1200.02 328 1007 1.100 10000.000 0.000 -0.835
85 255.00 1200.02 310 978 1.100 10000.000 0.000 -0.835
86 258.00 1200.02 347 974 1.100 10000.000 0.000 -0.835
87 261.00 1200.02 334 1003 1.100 10000.000 0.000 -0.835
88 264.00 1200.02 344 955 1.100 10000.000 0.000 -0.835
89 267.00 1200.02 349 962 1.100 10000.000 0.000 -0.835
90 270.00 1200.02 325 985 1.100 10000.000 0.000 -0.835
91 273.00 1200.02 318 943 1.100 10000.000 0.000 -0.835
92 276.00 1200.02 336 925 1.100 10000.000 0.000 -0.835
93 279.00 1200.02 316 926 1.100 10000.000 0.000 -0.835
94 282.00 1200.02 335 977 1.100 10000.000 0.000 -0.835
95 285.00 1200.02 305 970 1.100 10000.000 0.000 -0.835
96 288.00 1200.02 293 958 1.100 10000.000 0.000 -0.835
97 291.00 1200.02 331 911 1.100 10000.000 0.000 -0.835
98 294.00 1200.02 330 930 1.100 10000.000 0.000 -0.835
99 297.00 1200.02 309 957 1.100 10000.000 0.000 -0.835
100 300.00 1200.02 321 959 1.100 10000.000 0.000 -0.835
101 303.00 1200.02 293 936 1.100 10000.000 0.000 -0.835
102 306.00 1200.02 329 972 1.100 10000.000 0.000 -0.835
103 309.00 1200.02 339 958 1.100 10000.000 0.000 -0.835
104 312.00 1200.02 323 1021 1.100 10000.000 0.000 -0.835
105 315.00 1200.02 298 983 1.100 10000.000 0.000 -0.835
106 318.00 1200.02 346 1022 1.100 10000.000 0.000 -0.835
107 321.00 1200.02 317 934 1.100 10000.000 0.000 -0.835
108 324.00 1200.02 361 1030 1.100 10000.000 0.000 -0.835
109 327.00 1200.02 309 1018 1.100 10000.000 0.000 -0.835
110 330.00 1200.02 380 960 1.100 10000.000 0.000 -0.835
111 333.00 1200.02 289 987 1.100 10000.000 0.000 -0.835
112 336.00 1200.02 312 1016 1.100 10000.000 0.000 -0.835
113 339.00 1200.02 336 927 1.100 10000.000 0.000 -0.835
114 342.00 1200.02 341 1009 1.100 10000.000 0.000 -0.835
115 345.00 1200.02 298 995 1.100 10000.000 0.000 -0.835
116 348.00 1200.02 285 1011 1.100 10000.000 0.000 -0.835
117 351.00 1200.02 317 943 1.100 10000.000 0.000 -0.835
118 354.00 1200.02 320 966 1.100 10000.000 0.000 -0.835
119 357.00 1200.02 290 1022 1.100 10000.000 0.000 -0.835
120 360.00 1200.02 300 1032 1.100 10000.000 0.000 -0.835
121 363.00 1200.02 303 934 1.100 10000.000 0.000 -0.835
122 366.00 1200.02 284 939 1.100 10000.000 0.000 -0.835
123 369.00 1200.02 302 959 1.100 10000.000 0.000 -0.835
124 372.00 1200.02 281 1008 1.100 10000.000 0.000 -0.835
125 375.00 1200.02 290 953 1.100 10000.000 0.000 -0.835
126 378.00 1200.02 306 955 1.100 10000.000 0.000 -0.835
127 381.00 1200.02 287 949 1.100 10000.000 0.000 -0.835
128 384.00 1200.02 314 881 1.100 10000.000 0.000 -0.835
129 387.00 1200.02 342 914 1.100 10000.000 0.000 -0.835
130 390.00 1200.02 337 962 1.100 10000.000 0.000 -0.835
131 393.00 1200.02 313 914 1.100 10000.000 0.000 -0.835
132 396.00 1200.02 322 955 1.100 10000.000 0.000 -0.835
133 399.00 1200.02 325 892 1.100 10000.000 0.000 -0.835
134 402.00 1200.02 316 928 1.100 10000.000 0.000 -0.835
135 405.00 1200.02 351 946 1.100 10000.000 0.000 -0.835
136 408.00 1200.02 312 939 1.100 10000.000 0.000 -0.835
137 411.00 1200.02 342 1003 1.100 10000.000 0.000 -0.835
138 414.00 1200.02 323 982 1.100 10000.000 0.000 -0.835
139 417.00 1200.02 345 947 1.100 10000.000 0.000 -0.835
140 420.00 1200.02 300 890 1.100 10000.000 0.000 -0.835
141 423.00 1200.02 301 994 1.100 10000.000 0.000 -0.835
142 426.00 1200.02 326 998 1.100 10000.000 0.000 -0.835
143 429.00 1200.02 283 999 1.100 10000.000 0.000 -0.835
144 432.00 1200.02 357 1058 1.100 10000.000 0.000 -0.835
