# BinNR microsec tot-time (s)  O-Beam AUX Ampl(V) f(Hz) phase(deg) chi(pos)
0 0.00 1200.00 84 313 1.100 10000.000 0.000 0.835
1 3.00 1200.00 153 598 1.100 10000.000 0.000 0.835
2 6.00 1200.00 150 579 1.100 10000.000 0.000 0.835
3 9.00 1200.00 172 553 1.100 10000.000 0.000 0.835
4 12.00 1200.00 173 559 1.100 10000.000 0.000 0.835
5 15.00 1200.00 137 524 1.100 10000.000 0.000 0.835
6 18.00 1200.00 140 531 1.100 10000.000 0.000 0.835
7 21.00 1200.00 135 533 1.100 10000.000 0.000 0.835
8 24.00 1200.00 138 555 1.100 10000.000 0.000 0.835
9 27.00 1200.00 147 518 1.100 10000.000 0.000 0.835
10 30.00 1200.00 126 569 1.100 10000.000 0.000 0.835
11 33.00 1200.00 169 548 1.100 10000.000 0.000 0.835
12 36.00 1200.00 163 573 1.100 10000.000 0.000 0.835
13 39.00 1200.00 136 564 1.100 10000.000 0.000 0.835
14 42.00 1200.00 155 606 1.100 10000.000 0.000 0.835
15 45.00 1200.00 153 557 1.100 10000.000 0.000 0.835
16 48.00 1200.00 163 650 1.100 10000.000 0.000 0.835
17 51.00 1200.00 151 608 1.100 10000.000 0.000 0.835
18 54.00 1200.00 159 593 1.100 10000.000 0.000 0.835
19 57.00 1200.00 205 535 1.100 10000.000 0.000 0.835
20 60.00 1200.00 166 631 1.100 10000.000 0.000 0.835
21 63.00 1200.00 164 552 1.100 10000.000 0.000 0.835
22 66.00 1200.00 187 521 1.100 10000.000 0.000 0.835
23 69.00 1200.00 195 495 1.100 10000.000 0.000 0.835
24 72.00 1200.00 197 556 1.100 10000.000 0.000 0.835
25 75.00 1200.00 220 511 1.100 10000.000 0.000 0.835
26 78.00 1200.00 172 442 1.100 10000.000 0.000 0.835
27 81.00 1200.00 163 463 1.100 10000.000 0.000 0.835
28 84.00 1200.00 198 476 1.100 10000.000 0.000 0.835
29 87.00 1200.00 176 457 1.100 10000.000 0.000 0.835
30 90.00 1200.00 181 456 1.100 10000.000 0.000 0.835
31 93.00 1200.00 159 488 1.100 10000.000 0.000 0.835
32 96.00 1200.00 174 500 1.100 10000.000 0.000 0.835
33 99.00 1200.00 155 490 1.100 10000.000 0.000 0.835
34 102.00 1200.00 136 478 1.100 10000.000 0.000 0.835
35 105.00 1200.00 150 506 1.100 10000.000 0.000 0.835
36 108.00 1200.00 150 551 1.100 10000.000 0.000 0.835
37 111.00 1200.00 147 545 1.100 10000.000 0.000 0.835
38 114.00 1200.00 147 597 1.100 10000.000 0.000 0.835
39 117.00 1200.00 143 516 1.100 10000.000 0.000 0.835
40 120.00 1200.00 139 547 1.100 10000.000 0.000 0.835
41 123.00 1200.00 139 577 1.100 10000.000 0.000 0.835
42 126.00 1200.00 155 603 1.100 10000.000 0.000 0.835
43 129.00 1200.00 145 602 1.100 10000.000 0.000 0.835
44 132.00 1200.00 156 645 1.100 10000.000 0.000 0.835
45 135.00 1200.00 151 607 1.100 10000.000 0.000 0.835
46 138.00 1200.00 147 650 1.100 10000.000 0.000 0.835
47 141.00 1200.00 133 603 1.100 10000.000 0.000 0.835
48 144.00 1200.00 156 681 1.100 10000.000 0.000 0.835
49 147.00 1200.00 152 616 1.100 10000.000 0.000 0.835
50 150.00 1200.00 153 586 1.100 10000.000 0.000 0.835
51 153.00 1200.00 165 609 1.100 10000.000 0.000 0.835
52 156.00 1200.00 160 557 1.100 10000.000 0.000 0.835
53 159.00 1200.00 169 581 1.100 10000.000 0.000 0.835
54 162.00 1200.00 178 571 1.100 10000.000 0.000 0.835
55 165.00 1200.00 172 531 1.100 10000.000 0.000 0.835
56 168.00 1200.00 171 506 1.100 10000.000 0.000 0.835
57 171.00 1200.00 202 513 1.100 10000.000 0.000 0.835
58 174.00 1200.00 212 525 1.100 10000.000 0.000 0.835
59 177.00 1200.00 177 460 1.100 10000.000 0.000 0.835
60 180.00 1200.00 169 480 1.100 10000.000 0.000 0.835
61 183.00 1200.00 192 463 1.100 10000.000 0.000 0.835
62 186.00 1200.00 178 479 1.100 10000.000 0.000 0.835
63 189.00 1200.00 183 487 1.100 10000.000 0.000 0.835
64 192.00 1200.00 172 472 1.100 10000.000 0.000 0.835
65 195.00 1200.00 155 502 1.100 10000.000 0.000 0.835
66 198.00 1200.00 158 537 1.100 10000.000 0.000 0.835
67 201.00 1200.00 149 496 1.100 10000.000 0.000 0.835
68 204.00 1200.00 175 523 1.100 10000.000 0.000 0.835
69 207.00 1200.00 157 550 1.100 10000.000 0.000 0.835
70 210.00 1200.00 151 544 1.100 10000.000 0.000 0.835
71 213.00 1200.00 122 537 1.100 10000.000 0.000 0.835
72 216.00 1200.00 151 564 1.100 10000.000 0.000 0.835
73 219.00 1200.00 145 573 1.100 10000.000 0.000 0.835
74 222.00 1200.00 160 577 1.100 10000.000 0.000 0.835
75 225.00 1200.00 134 601 1.100 10000.000 0.000 0.835
76 228.00 1200.00 135 645 1.100 10000.000 0.000 0.835
77 231.00 1200.00 153 658 1.100 10000.000 0.000 0.835
78 234.00 1200.00 140 627 1.100 10000.000 0.000 0.835
79 237.00 1200.00 125 619 1.100 10000.000 0.000 0.835
80 240.00 1200.00 154 646 1.100 10000.000 0.000 0.835
81 243.00 1200.00 142 657 1.100 10000.000 0.000 0.835
82 246.00 1200.00 164 646 1.100 10000.000 0.000 0.835
83 249.00 1200.00 140 582 1.100 10000.000 0.000 0.835
84 252.00 1200.00 191 601 1.100 10000.000 0.000 0.835
85 255.00 1200.00 161 572 1.100 10000.000 0.000 0.835
86 258.00 1200.00 167 619 1.100 10000.000 0.000 0.835
87 261.00 1200.00 168 572 1.100 10000.000 0.000 0.835
88 264.00 1200.00 167 597 1.100 10000.000 0.000 0.835
89 267.00 1200.00 176 553 1.100 10000.000 0.000 0.835
90 270.00 1200.00 184 508 1.100 10000.000 0.000 0.835
91 273.00 1200.00 167 493 1.100 10000.000 0.000 0.835
92 276.00 1200.00 173 519 1.100 10000.000 0.000 0.835
93 279.00 1200.00 172 478 1.100 10000.000 0.000 0.835
94 282.00 1200.00 165 455 1.100 10000.000 0.000 0.835
95 285.00 1200.00 144 458 1.100 10000.000 0.000 0.835
96 288.00 1200.00 160 486 1.100 10000.000 0.000 0.835
97 291.00 1200.00 155 543 1.100 10000.000 0.000 0.835
98 294.00 1200.00 155 498 1.100 10000.000 0.000 0.835
99 297.00 1200.00 151 492 1.100 10000.000 0.000 0.835
100 300.00 1200.00 159 508 1.100 10000.000 0.000 0.835
101 303.00 1200.00 170 448 1.100 10000.000 0.000 0.835
102 306.00 1200.00 189 513 1.100 10000.000 0.000 0.835
103 309.00 1200.00 158 571 1.100 10000.000 0.000 0.835
104 312.00 1200.00 179 549 1.100 10000.000 0.000 0.835
105 315.00 1200.00 180 545 1.100 10000.000 0.000 0.835
106 318.00 1200.00 163 545 1.100 10000.000 0.000 0.835
107 321.00 1200.00 190 599 1.100 10000.000 0.000 0.835
108 324.00 1200.00 179 614 1.100 10000.000 0.000 0.835
109 327.00 1200.00 188 609 1.100 10000.000 0.000 0.835
110 330.00 1200.00 169 591 1.100 10000.000 0.000 0.835
111 333.00 1200.00 150 586 1.100 10000.000 0.000 0.835
112 336.00 1200.00 182 659 1.100 10000.000 0.000 0.835
113 339.00 1200.00 168 630 1.100 10000.000 0.000 0.835
114 342.00 1200.00 152 611 1.100 10000.000 0.000 0.835
115 345.00 1200.00 146 599 1.100 10000.000 0.000 0.835
116 348.00 1200.00 162 630 1.100 10000.000 0.000 0.835
117 351.00 1200.00 141 598 1.100 10000.000 0.000 0.835
118 354.00 1200.00 149 596 1.100 10000.000 0.000 0.835
119 357.00 1200.00 141 602 1.100 10000.000 0.000 0.835
120 360.00 1200.00 138 559 1.100 10000.000 0.000 0.835
121 363.00 1200.00 137 512 1.100 10000.000 0.000 0.835
122 366.00 1200.00 133 524 1.100 10000.000 0.000 0.835
123 369.00 1200.00 143 484 1.100 10000.000 0.000 0.835
124 372.00 1200.00 186 526 1.100 10000.000 0.000 0.835
125 375.00 1200.00 140 519 1.100 10000.000 0.000 0.835
126 378.00 1200.00 131 500 1.100 10000.000 0.000 0.835
127 381.00 1200.00 171 493 1.100 10000.000 0.000 0.835
128 384.00 1200.00 149 490 1.100 10000.000 0.000 0.835
129 387.00 1200.00 163 456 1.100 10000.000 0.000 0.835
130 390.00 1200.00 171 466 1.100 10000.000 0.000 0.835
131 393.00 1200.00 179 476 1.100 10000.000 0.000 0.835
132 396.00 1200.00 162 463 1.100 10000.000 0.000 0.835
133 399.00 1200.00 180 501 1.100 10000.000 0.000 0.835
134 402.00 1200.00 175 504 1.100 10000.000 0.000 0.835
135 405.00 1200.00 183 523 1.100 10000.000 0.000 0.835
136 408.00 1200.00 198 483 1.100 10000.000 0.000 0.835
137 411.00 1200.00 195 518 1.100 10000.000 0.000 0.835
138 414.00 1200.00 205 551 1.100 10000.000 0.000 0.835
139 417.00 1200.00 179 542 1.100 10000.000 0.000 0.835
140 420.00 1200.00 197 588 1.100 10000.000 0.000 0.835
141 423.00 1200.00 164 563 1.100 10000.000 0.000 0.835
142 426.00 1200.00 177 588 1.100 10000.000 0.000 0.835
143 429.00 1200.00 164 634 1.100 10000.000 0.000 0.835
144 432.00 1200.00 158 673 1.100 10000.000 0.000 0.835
