# BinNR microsec tot-time (s)  O-Beam AUX Ampl(V) f(Hz) phase(deg) chi(pos)
0 0.00 1200.01 158 434 1.100 10000.000 0.000 1.505
1 3.00 1200.01 349 854 1.100 10000.000 0.000 1.505
2 6.00 1200.01 309 909 1.100 10000.000 0.000 1.505
3 9.00 1200.01 327 932 1.100 10000.000 0.000 1.505
4 12.00 1200.01 366 978 1.100 10000.000 0.000 1.505
5 15.00 1200.01 361 973 1.100 10000.000 0.000 1.505
6 18.00 1200.01 370 958 1.100 10000.000 0.000 1.505
7 21.00 1200.01 355 942 1.100 10000.000 0.000 1.505
8 24.00 1200.01 383 930 1.100 10000.000 0.000 1.505
9 27.00 1200.01 341 906 1.100 10000.000 0.000 1.505
10 30.00 1200.01 356 922 1.100 10000.000 0.000 1.505
11 33.00 1200.01 345 923 1.100 10000.000 0.000 1.505
12 36.00 1200.01 350 950 1.100 10000.000 0.000 1.505
13 39.00 1200.01 348 925 1.100 10000.000 0.000 1.505
14 42.00 1200.01 340 936 1.100 10000.000 0.000 1.505
15 45.00 1200.01 387 920 1.100 10000.000 0.000 1.505
16 48.00 1200.01 382 962 1.100 10000.000 0.000 1.505
17 51.00 1200.01 365 915 1.100 10000.000 0.000 1.505
18 54.00 1200.01 363 915 1.100 10000.000 0.000 1.505
19 57.00 1200.01 330 912 1.100 10000.000 0.000 1.505
20 60.00 1200.01 354 988 1.100 10000.000 0.000 1.505
21 63.00 1200.01 339 931 1.100 10000.000 0.000 1.505
22 66.00 1200.01 347 898 1.100 10000.000 0.000 1.505
23 69.00 1200.01 353 913 1.100 10000.000 0.000 1.505
24 72.00 1200.01 391 936 1.100 10000.000 0.000 1.505
25 75.00 1200.01 351 963 1.100 10000.000 0.000 1.505
26 78.00 1200.01 360 960 1.100 10000.000 0.000 1.505
27 81.00 1200.01 327 1000 1.100 10000.000 0.000 1.505
28 84.00 1200.01 336 978 1.100 10000.000 0.000 1.505
29 87.00 1200.01 348 961 1.100 10000.000 0.000 1.505
30 90.00 1200.01 321 959 1.100 10000.000 0.000 1.505
31 93.00 1200.01 370 966 1.100 10000.000 0.000 1.505
32 96.00 1200.01 362 1038 1.100 10000.000 0.000 1.505
33 99.00 1200.01 355 953 1.100 10000.000 0.000 1.505
34 102.00 1200.01 335 942 1.100 10000.000 0.000 1.505
35 105.00 1200.01 352 1015 1.100 10000.000 0.000 1.505
36 108.00 1200.01 366 941 1.100 10000.000 0.000 1.505
37 111.00 1200.01 364 979 1.100 10000.000 0.000 1.505
38 114.00 1200.01 356 973 1.100 10000.000 0.000 1.505
39 117.00 1200.01 392 896 1.100 10000.000 0.000 1.505
40 120.00 1200.01 335 959 1.100 10000.000 0.000 1.505
41 123.00 1200.01 366 954 1.100 10000.000 0.000 1.505
42 126.00 1200.01 348 941 1.100 10000.000 0.000 1.505
43 129.00 1200.01 362 870 1.100 10000.000 0.000 1.505
44 132.00 1200.01 374 898 1.100 10000.000 0.000 1.505
45 135.00 1200.01 329 871 1.100 10000.000 0.000 1.505
46 138.00 1200.01 366 936 1.100 10000.000 0.000 1.505
47 141.00 1200.01 317 926 1.100 10000.000 0.000 1.505
48 144.00 1200.01 366 894 1.100 10000.000 0.000 1.505
49 147.00 1200.01 333 932 1.100 10000.000 0.000 1.505
50 150.00 1200.01 364 949 1.100 10000.000 0.000 1.505
51 153.00 1200.01 351 933 1.100 10000.000 0.000 1.505
52 156.00 1200.01 356 943 1.100 10000.000 0.000 1.505
53 159.00 1200.01 332 939 1.100 10000.000 0.000 1.505
54 162.00 1200.01 379 964 1.100 10000.000 0.000 1.505
55 165.00 1200.01 334 841 1.100 10000.000 0.000 1.505
56 168.00 1200.01 359 955 1.100 10000.000 0.000 1.505
57 171.00 1200.01 331 1034 1.100 10000.000 0.000 1.505
58 174.00 1200.01 355 986 1.100 10000.000 0.000 1.505
59 177.00 1200.01 361 973 1.100 10000.000 0.000 1.505
60 180.00 1200.01 363 949 1.100 10000.000 0.000 1.505
61 183.00 1200.01 313 919 1.100 10000.000 0.000 1.505
62 186.00 1200.01 341 1052 1.100 10000.000 0.000 1.505
63 189.00 1200.01 364 971 1.100 10000.000 0.000 1.505
64 192.00 1200.01 366 984 1.100 10000.000 0.000 1.505
65 195.00 1200.01 345 979 1.100 10000.000 0.000 1.505
66 198.00 1200.01 327 962 1.100 10000.000 0.000 1.505
67 201.00 1200.01 329 887 1.100 10000.000 0.000 1.505
68 204.00 1200.01 351 1038 1.100 10000.000 0.000 1.505
69 207.00 1200.01 372 928 1.100 10000.000 0.000 1.505
70 210.00 1200.01 383 1048 1.100 10000.000 0.000 1.505
71 213.00 1200.01 381 951 1.100 10000.000 0.000 1.505
72 216.00 1200.01 321 962 1.100 10000.000 0.000 1.505
73 219.00 1200.01 344 905 1.100 10000.000 0.000 1.505
74 222.00 1200.01 343 943 1.100 10000.000 0.000 1.505
75 225.00 1200.01 366 911 1.100 10000.000 0.000 1.505
76 228.00 1200.01 326 965 1.100 10000.000 0.000 1.505
77 231.00 1200.01 334 934 1.100 10000.000 0.000 1.505
78 234.00 1200.01 366 965 1.100 10000.000 0.000 1.505
79 237.00 1200.01 333 884 1.100 10000.000 0.000 1.505
80 240.00 1200.01 356 924 1.100 10000.000 0.000 1.505
81 243.00 1200.01 333 918 1.100 10000.000 0.000 1.505
82 246.00 1200.01 365 904 1.100 10000.000 0.000 1.505
83 249.00 1200.01 339 955 1.100 10000.000 0.000 1.505
84 252.00 1200.01 392 934 1.100 10000.000 0.000 1.505
85 255.00 1200.01 342 917 1.100 10000.000 0.000 1.505
86 258.00 1200.01 331 881 1.100 10000.000 0.000 1.505
87 261.00 1200.01 342 931 1.100 10000.000 0.000 1.505
88 264.00 1200.01 343 969 1.100 10000.000 0.000 1.505
89 267.00 1200.01 338 872 1.100 10000.000 0.000 1.505
90 270.00 1200.01 338 980 1.100 10000.000 0.000 1.505
91 273.00 1200.01 358 967 1.100 10000.000 0.000 1.505
92 276.00 1200.01 341 910 1.100 10000.000 0.000 1.505
93 279.00 1200.01 364 977 1.100 10000.000 0.000 1.505
94 282.00 1200.01 342 956 1.100 10000.000 0.000 1.505
95 285.00 1200.01 370 985 1.100 10000.000 0.000 1.505
96 288.00 1200.01 308 1026 1.100 10000.000 0.000 1.505
97 291.00 1200.01 361 1005 1.100 10000.000 0.000 1.505
98 294.00 1200.01 360 1030 1.100 10000.000 0.000 1.505
99 297.00 1200.01 384 984 1.100 10000.000 0.000 1.505
100 300.00 1200.01 394 988 1.100 10000.000 0.000 1.505
101 303.00 1200.01 347 966 1.100 10000.000 0.000 1.505
102 306.00 1200.01 365 967 1.100 10000.000 0.000 1.505
103 309.00 1200.01 352 973 1.100 10000.000 0.000 1.505
104 312.00 1200.01 367 972 1.100 10000.000 0.000 1.505
105 315.00 1200.01 344 922 1.100 10000.000 0.000 1.505
106 318.00 1200.01 345 951 1.100 10000.000 0.000 1.505
107 321.00 1200.01 343 929 1.100 10000.000 0.000 1.505
108 324.00 1200.01 366 911 1.100 10000.000 0.000 1.505
109 327.00 1200.01 331 947 1.100 10000.000 0.000 1.505
110 330.00 1200.01 349 900 1.100 10000.000 0.000 1.505
111 333.00 1200.01 367 899 1.100 10000.000 0.000 1.505
112 336.00 1200.01 338 940 1.100 10000.000 0.000 1.505
113 339.00 1200.01 352 869 1.100 10000.000 0.000 1.505
114 342.00 1200.01 358 931 1.100 10000.000 0.000 1.505
115 345.00 1200.01 319 892 1.100 10000.000 0.000 1.505
116 348.00 1200.01 364 967 1.100 10000.000 0.000 1.505
117 351.00 1200.01 346 860 1.100 10000.000 0.000 1.505
118 354.00 1200.01 379 970 1.100 10000.000 0.000 1.505
119 357.00 1200.01 362 888 1.100 10000.000 0.000 1.505
120 360.00 1200.01 344 942 1.100 10000.000 0.000 1.505
121 363.00 1200.01 337 931 1.100 10000.000 0.000 1.505
122 366.00 1200.01 342 933 1.100 10000.000 0.000 1.505
123 369.00 1200.01 321 948 1.100 10000.000 0.000 1.505
124 372.00 1200.01 376 1005 1.100 10000.000 0.000 1.505
125 375.00 1200.01 378 910 1.100 10000.000 0.000 1.505
126 378.00 1200.01 372 937 1.100 10000.000 0.000 1.505
127 381.00 1200.01 334 939 1.100 10000.000 0.000 1.505
128 384.00 1200.01 340 1018 1.100 10000.000 0.000 1.505
129 387.00 1200.01 378 954 1.100 10000.000 0.000 1.505
130 390.00 1200.01 354 957 1.100 10000.000 0.000 1.505
131 393.00 1200.01 300 1005 1.100 10000.000 0.000 1.505
132 396.00 1200.01 339 1014 1.100 10000.000 0.000 1.505
133 399.00 1200.01 350 973 1.100 10000.000 0.000 1.505
134 402.00 1200.01 364 966 1.100 10000.000 0.000 1.505
135 405.00 1200.01 356 968 1.100 10000.000 0.000 1.505
136 408.00 1200.01 369 971 1.100 10000.000 0.000 1.505
137 411.00 1200.01 361 923 1.100 10000.000 0.000 1.505
138 414.00 1200.01 341 955 1.100 10000.000 0.000 1.505
139 417.00 1200.01 349 970 1.100 10000.000 0.000 1.505
140 420.00 1200.01 368 942 1.100 10000.000 0.000 1.505
141 423.00 1200.01 353 934 1.100 10000.000 0.000 1.505
142 426.00 1200.01 342 903 1.100 10000.000 0.000 1.505
143 429.00 1200.01 347 923 1.100 10000.000 0.000 1.505
144 432.00 1200.01 365 915 1.100 10000.000 0.000 1.505
