# BinNR microsec tot-time (s)  O-Beam AUX Ampl(V) f(Hz) phase(deg) chi(pos)
0 0.00 1200.01 160 486 1.100 10000.000 0.000 1.329
1 3.00 1200.01 307 994 1.100 10000.000 0.000 1.329
2 6.00 1200.01 347 1036 1.100 10000.000 0.000 1.329
3 9.00 1200.01 357 1000 1.100 10000.000 0.000 1.329
4 12.00 1200.01 309 1015 1.100 10000.000 0.000 1.329
5 15.00 1200.01 331 992 1.100 10000.000 0.000 1.329
6 18.00 1200.01 334 1035 1.100 10000.000 0.000 1.329
7 21.00 1200.01 340 989 1.100 10000.000 0.000 1.329
8 24.00 1200.01 354 1026 1.100 10000.000 0.000 1.329
9 27.00 1200.01 362 987 1.100 10000.000 0.000 1.329
10 30.00 1200.01 365 1043 1.100 10000.000 0.000 1.329
11 33.00 1200.01 333 1034 1.100 10000.000 0.000 1.329
12 36.00 1200.01 350 999 1.100 10000.000 0.000 1.329
13 39.00 1200.01 356 974 1.100 10000.000 0.000 1.329
14 42.00 1200.01 336 1029 1.100 10000.000 0.000 1.329
15 45.00 1200.01 341 934 1.100 10000.000 0.000 1.329
16 48.00 1200.01 320 984 1.100 10000.000 0.000 1.329
17 51.00 1200.01 358 1000 1.100 10000.000 0.000 1.329
18 54.00 1200.01 356 961 1.100 10000.000 0.000 1.329
19 57.00 1200.01 366 1027 1.100 10000.000 0.000 1.329
20 60.00 1200.01 340 999 1.100 10000.000 0.000 1.329
21 63.00 1200.01 333 1047 1.100 10000.000 0.000 1.329
22 66.00 1200.01 342 1031 1.100 10000.000 0.000 1.329
23 69.00 1200.01 323 949 1.100 10000.000 0.000 1.329
24 72.00 1200.01 322 1037 1.100 10000.000 0.000 1.329
25 75.00 1200.01 352 964 1.100 10000.000 0.000 1.329
26 78.00 1200.01 347 981 1.100 10000.000 0.000 1.329
27 81.00 1200.01 366 963 1.100 10000.000 0.000 1.329
28 84.00 1200.01 385 1053 1.100 10000.000 0.000 1.329
29 87.00 1200.01 353 1002 1.100 10000.000 0.000 1.329
30 90.00 1200.01 375 1045 1.100 10000.000 0.000 1.329
31 93.00 1200.01 360 1008 1.100 10000.000 0.000 1.329
32 96.00 1200.01 338 1038 1.100 10000.000 0.000 1.329
33 99.00 1200.01 331 996 1.100 10000.000 0.000 1.329
34 102.00 1200.01 357 1030 1.100 10000.000 0.000 1.329
35 105.00 1200.01 346 992 1.100 10000.000 0.000 1.329
36 108.00 1200.01 344 985 1.100 10000.000 0.000 1.329
37 111.00 1200.01 297 976 1.100 10000.000 0.000 1.329
38 114.00 1200.01 311 1038 1.100 10000.000 0.000 1.329
39 117.00 1200.01 293 966 1.100 10000.000 0.000 1.329
40 120.00 1200.01 351 1017 1.100 10000.000 0.000 1.329
41 123.00 1200.01 337 989 1.100 10000.000 0.000 1.329
42 126.00 1200.01 331 1016 1.100 10000.000 0.000 1.329
43 129.00 1200.01 320 995 1.100 10000.000 0.000 1.329
44 132.00 1200.01 309 1050 1.100 10000.000 0.000 1.329
45 135.00 1200.01 338 1020 1.100 10000.000 0.000 1.329
46 138.00 1200.01 339 967 1.100 10000.000 0.000 1.329
47 141.00 1200.01 351 1034 1.100 10000.000 0.000 1.329
48 144.00 1200.01 328 999 1.100 10000.000 0.000 1.329
49 147.00 1200.01 310 945 1.100 10000.000 0.000 1.329
50 150.00 1200.01 363 1025 1.100 10000.000 0.000 1.329
51 153.00 1200.01 330 1078 1.100 10000.000 0.000 1.329
52 156.00 1200.01 321 951 1.100 10000.000 0.000 1.329
53 159.00 1200.01 343 1052 1.100 10000.000 0.000 1.329
54 162.00 1200.01 343 987 1.100 10000.000 0.000 1.329
55 165.00 1200.01 345 1018 1.100 10000.000 0.000 1.329
56 168.00 1200.01 370 987 1.100 10000.000 0.000 1.329
57 171.00 1200.01 376 986 1.100 10000.000 0.000 1.329
58 174.00 1200.01 371 1016 1.100 10000.000 0.000 1.329
59 177.00 1200.01 335 999 1.100 10000.000 0.000 1.329
60 180.00 1200.01 358 963 1.100 10000.000 0.000 1.329
61 183.00 1200.01 339 1005 1.100 10000.000 0.000 1.329
62 186.00 1200.01 353 976 1.100 10000.000 0.000 1.329
63 189.00 1200.01 358 971 1.100 10000.000 0.000 1.329
64 192.00 1200.01 312 976 1.100 10000.000 0.000 1.329
65 195.00 1200.01 354 980 1.100 10000.000 0.000 1.329
66 198.00 1200.01 319 1013 1.100 10000.000 0.000 1.329
67 201.00 1200.01 349 1001 1.100 10000.000 0.000 1.329
68 204.00 1200.01 341 1014 1.100 10000.000 0.000 1.329
69 207.00 1200.01 325 981 1.100 10000.000 0.000 1.329
70 210.00 1200.01 357 966 1.100 10000.000 0.000 1.329
71 213.00 1200.01 369 1044 1.100 10000.000 0.000 1.329
72 216.00 1200.01 368 963 1.100 10000.000 0.000 1.329
73 219.00 1200.01 339 1038 1.100 10000.000 0.000 1.329
74 222.00 1200.01 374 1028 1.100 10000.000 0.000 1.329
75 225.00 1200.01 352 997 1.100 10000.000 0.000 1.329
76 228.00 1200.01 336 1006 1.100 10000.000 0.000 1.329
77 231.00 1200.01 353 955 1.100 10000.000 0.000 1.329
78 234.00 1200.01 313 1031 1.100 10000.000 0.000 1.329
79 237.00 1200.01 316 979 1.100 10000.000 0.000 1.329
80 240.00 1200.01 337 979 1.100 10000.000 0.000 1.329
81 243.00 1200.01 379 1024 1.100 10000.000 0.000 1.329
82 246.00 1200.01 335 1004 1.100 10000.000 0.000 1.329
83 249.00 1200.01 328 973 1.100 10000.000 0.000 1.329
84 252.00 1200.01 357 954 1.100 10000.000 0.000 1.329
85 255.00 1200.01 369 985 1.100 10000.000 0.000 1.329
86 258.00 1200.01 328 1040 1.100 10000.000 0.000 1.329
87 261.00 1200.01 364 1028 1.100 10000.000 0.000 1.329
88 264.00 1200.01 336 1038 1.100 10000.000 0.000 1.329
89 267.00 1200.01 331 1009 1.100 10000.000 0.000 1.329
90 270.00 1200.01 344 1033 1.100 10000.000 0.000 1.329
91 273.00 1200.01 354 1060 1.100 10000.000 0.000 1.329
92 276.00 1200.01 364 992 1.100 10000.000 0.000 1.329
93 279.00 1200.01 324 1022 1.100 10000.000 0.000 1.329
94 282.00 1200.01 356 1068 1.100 10000.000 0.000 1.329
95 285.00 1200.01 330 992 1.100 10000.000 0.000 1.329
96 288.00 1200.01 360 942 1.100 10000.000 0.000 1.329
97 291.00 1200.01 321 970 1.100 10000.000 0.000 1.329
98 294.00 1200.01 347 1025 1.100 10000.000 0.000 1.329
99 297.00 1200.01 332 1009 1.100 10000.000 0.000 1.329
100 300.00 1200.01 355 1023 1.100 10000.000 0.000 1.329
101 303.00 1200.01 336 1017 1.100 10000.000 0.000 1.329
102 306.00 1200.01 328 1056 1.100 10000.000 0.000 1.329
103 309.00 1200.01 334 981 1.100 10000.000 0.000 1.329
104 312.00 1200.01 347 1092 1.100 10000.000 0.000 1.329
105 315.00 1200.01 364 1045 1.100 10000.000 0.000 1.329
106 318.00 1200.01 314 977 1.100 10000.000 0.000 1.329
107 321.00 1200.01 353 982 1.100 10000.000 0.000 1.329
108 324.00 1200.01 331 1004 1.100 10000.000 0.000 1.329
109 327.00 1200.01 349 993 1.100 10000.000 0.000 1.329
110 330.00 1200.01 360 964 1.100 10000.000 0.000 1.329
111 333.00 1200.01 334 988 1.100 10000.000 0.000 1.329
112 336.00 1200.01 353 1038 1.100 10000.000 0.000 1.329
113 339.00 1200.01 366 1001 1.100 10000.000 0.000 1.329
114 342.00 1200.01 316 963 1.100 10000.000 0.000 1.329
115 345.00 1200.01 357 947 1.100 10000.000 0.000 1.329
116 348.00 1200.01 343 984 1.100 10000.000 0.000 1.329
117 351.00 1200.01 320 927 1.100 10000.000 0.000 1.329
118 354.00 1200.01 344 1023 1.100 10000.000 0.000 1.329
119 357.00 1200.01 308 1002 1.100 10000.000 0.000 1.329
120 360.00 1200.01 331 1039 1.100 10000.000 0.000 1.329
121 363.00 1200.01 344 995 1.100 10000.000 0.000 1.329
122 366.00 1200.01 312 1058 1.100 10000.000 0.000 1.329
123 369.00 1200.01 349 986 1.100 10000.000 0.000 1.329
124 372.00 1200.01 348 972 1.100 10000.000 0.000 1.329
125 375.00 1200.01 324 986 1.100 10000.000 0.000 1.329
126 378.00 1200.01 375 1031 1.100 10000.000 0.000 1.329
127 381.00 1200.01 330 969 1.100 10000.000 0.000 1.329
128 384.00 1200.01 339 999 1.100 10000.000 0.000 1.329
129 387.00 1200.01 350 1037 1.100 10000.000 0.000 1.329
130 390.00 1200.01 311 968 1.100 10000.000 0.000 1.329
131 393.00 1200.01 351 976 1.100 10000.000 0.000 1.329
132 396.00 1200.01 360 1023 1.100 10000.000 0.000 1.329
133 399.00 1200.01 345 947 1.100 10000.000 0.000 1.329
134 402.00 1200.01 367 1109 1.100 10000.000 0.000 1.329
135 405.00 1200.01 350 1000 1.100 10000.000 0.000 1.329
136 408.00 1200.01 344 1042 1.100 10000.000 0.000 1.329
137 411.00 1200.01 323 1027 1.100 10000.000 0.000 1.329
138 414.00 1200.01 356 1046 1.100 10000.000 0.000 1.329
139 417.00 1200.01 364 1030 1.100 10000.000 0.000 1.329
140 420.00 1200.01 381 1004 1.100 10000.000 0.000 1.329
141 423.00 1200.01 361 980 1.100 10000.000 0.000 1.329
142 426.00 1200.01 333 987 1.100 10000.000 0.000 1.329
143 429.00 1200.01 346 987 1.100 10000.000 0.000 1.329
144 432.00 1200.01 352 1012 1.100 10000.000 0.000 1.329
