# BinNR microsec tot-time (s)  O-Beam AUX Ampl(V) f(Hz) phase(deg) chi(pos)
0 0.00 1200.03 125 254 1.100 10000.000 0.000 -0.176
1 3.00 1200.03 234 443 1.100 10000.000 0.000 -0.176
2 6.00 1200.03 270 493 1.100 10000.000 0.000 -0.176
3 9.00 1200.03 255 526 1.100 10000.000 0.000 -0.176
4 12.00 1200.03 252 554 1.100 10000.000 0.000 -0.176
5 15.00 1200.03 277 532 1.100 10000.000 0.000 -0.176
6 18.00 1200.03 275 561 1.100 10000.000 0.000 -0.176
7 21.00 1200.03 279 562 1.100 10000.000 0.000 -0.176
8 24.00 1200.03 267 577 1.100 10000.000 0.000 -0.176
9 27.00 1200.03 301 560 1.100 10000.000 0.000 -0.176
10 30.00 1200.03 320 540 1.100 10000.000 0.000 -0.176
11 33.00 1200.03 286 571 1.100 10000.000 0.000 -0.176
12 36.00 1200.03 252 575 1.100 10000.000 0.000 -0.176
13 39.00 1200.03 277 553 1.100 10000.000 0.000 -0.176
14 42.00 1200.03 268 514 1.100 10000.000 0.000 -0.176
15 45.00 1200.03 253 510 1.100 10000.000 0.000 -0.176
16 48.00 1200.03 277 492 1.100 10000.000 0.000 -0.176
17 51.00 1200.03 274 454 1.100 10000.000 0.000 -0.176
18 54.00 1200.03 248 479 1.100 10000.000 0.000 -0.176
19 57.00 1200.03 247 482 1.100 10000.000 0.000 -0.176
20 60.00 1200.03 237 555 1.100 10000.000 0.000 -0.176
21 63.00 1200.03 234 564 1.100 10000.000 0.000 -0.176
22 66.00 1200.03 225 546 1.100 10000.000 0.000 -0.176
23 69.00 1200.03 217 541 1.100 10000.000 0.000 -0.176
24 72.00 1200.03 247 591 1.100 10000.000 0.000 -0.176
25 75.00 1200.03 213 582 1.100 10000.000 0.000 -0.176
26 78.00 1200.03 272 633 1.100 10000.000 0.000 -0.176
27 81.00 1200.03 223 574 1.100 10000.000 0.000 -0.176
28 84.00 1200.03 217 615 1.100 10000.000 0.000 -0.176
29 87.00 1200.03 226 595 1.100 10000.000 0.000 -0.176
30 90.00 1200.03 241 597 1.100 10000.000 0.000 -0.176
31 93.00 1200.03 247 561 1.100 10000.000 0.000 -0.176
32 96.00 1200.03 253 588 1.100 10000.000 0.000 -0.176
33 99.00 1200.03 258 606 1.100 10000.000 0.000 -0.176
34 102.00 1200.03 243 619 1.100 10000.000 0.000 -0.176
35 105.00 1200.03 256 595 1.100 10000.000 0.000 -0.176
36 108.00 1200.03 279 547 1.100 10000.000 0.000 -0.176
37 111.00 1200.03 237 542 1.100 10000.000 0.000 -0.176
38 114.00 1200.03 256 546 1.100 10000.000 0.000 -0.176
39 117.00 1200.03 275 497 1.100 10000.000 0.000 -0.176
40 120.00 1200.03 280 482 1.100 10000.000 0.000 -0.176
41 123.00 1200.03 283 453 1.100 10000.000 0.000 -0.176
42 126.00 1200.03 260 535 1.100 10000.000 0.000 -0.176
43 129.00 1200.03 275 495 1.100 10000.000 0.000 -0.176
44 132.00 1200.03 305 446 1.100 10000.000 0.000 -0.176
45 135.00 1200.03 273 482 1.100 10000.000 0.000 -0.176
46 138.00 1200.03 304 462 1.100 10000.000 0.000 -0.176
47 141.00 1200.03 265 460 1.100 10000.000 0.000 -0.176
48 144.00 1200.03 249 450 1.100 10000.000 0.000 -0.176
49 147.00 1200.03 261 442 1.100 10000.000 0.000 -0.176
50 150.00 1200.03 276 474 1.100 10000.000 0.000 -0.176
51 153.00 1200.03 238 518 1.100 10000.000 0.000 -0.176
52 156.00 1200.03 253 515 1.100 10000.000 0.000 -0.176
53 159.00 1200.03 244 515 1.100 10000.000 0.000 -0.176
54 162.00 1200.03 235 550 1.100 10000.000 0.000 -0.176
55 165.00 1200.03 231 524 1.100 10000.000 0.000 -0.176
56 168.00 1200.03 273 574 1.100 10000.000 0.000 -0.176
57 171.00 1200.03 257 568 1.100 10000.000 0.000 -0.176
58 174.00 1200.03 247 558 1.100 10000.000 0.000 -0.176
59 177.00 1200.03 212 597 1.100 10000.000 0.000 -0.176
60 180.00 1200.03 240 582 1.100 10000.000 0.000 -0.176
61 183.00 1200.03 260 624 1.100 10000.000 0.000 -0.176
62 186.00 1200.03 246 589 1.100 10000.000 0.000 -0.176
63 189.00 1200.03 229 613 1.100 10000.000 0.000 -0.176
64 192.00 1200.03 237 574 1.100 10000.000 0.000 -0.176
65 195.00 1200.03 252 575 1.100 10000.000 0.000 -0.176
66 198.00 1200.03 281 608 1.100 10000.000 0.000 -0.176
67 201.00 1200.03 282 593 1.100 10000.000 0.000 -0.176
68 204.00 1200.03 262 602 1.100 10000.000 0.000 -0.176
69 207.00 1200.03 270 587 1.100 10000.000 0.000 -0.176
70 210.00 1200.03 280 553 1.100 10000.000 0.000 -0.176
71 213.00 1200.03 274 570 1.100 10000.000 0.000 -0.176
72 216.00 1200.03 238 512 1.100 10000.000 0.000 -0.176
73 219.00 1200.03 294 510 1.100 10000.000 0.000 -0.176
74 222.00 1200.03 264 484 1.100 10000.000 0.000 -0.176
75 225.00 1200.03 285 443 1.100 10000.000 0.000 -0.176
76 228.00 1200.03 285 481 1.100 10000.000 0.000 -0.176
77 231.00 1200.03 270 451 1.100 10000.000 0.000 -0.176
78 234.00 1200.03 276 494 1.100 10000.000 0.000 -0.176
79 237.00 1200.03 267 474 1.100 10000.000 0.000 -0.176
80 240.00 1200.03 266 419 1.100 10000.000 0.000 -0.176
81 243.00 1200.03 243 462 1.100 10000.000 0.000 -0.176
82 246.00 1200.03 258 480 1.100 10000.000 0.000 -0.176
83 249.00 1200.03 288 478 1.100 10000.000 0.000 -0.176
84 252.00 1200.03 256 467 1.100 10000.000 0.000 -0.176
85 255.00 1200.03 255 505 1.100 10000.000 0.000 -0.176
86 258.00 1200.03 264 503 1.100 10000.000 0.000 -0.176
87 261.00 1200.03 265 525 1.100 10000.000 0.000 -0.176
88 264.00 1200.03 241 520 1.100 10000.000 0.000 -0.176
89 267.00 1200.03 240 580 1.100 10000.000 0.000 -0.176
90 270.00 1200.03 274 597 1.100 10000.000 0.000 -0.176
91 273.00 1200.03 232 574 1.100 10000.000 0.000 -0.176
92 276.00 1200.03 238 601 1.100 10000.000 0.000 -0.176
93 279.00 1200.03 242 603 1.100 10000.000 0.000 -0.176
94 282.00 1200.03 256 600 1.100 10000.000 0.000 -0.176
95 285.00 1200.03 251 597 1.100 10000.000 0.000 -0.176
96 288.00 1200.03 244 635 1.100 10000.000 0.000 -0.176
97 291.00 1200.03 240 621 1.100 10000.000 0.000 -0.176
98 294.00 1200.03 249 597 1.100 10000.000 0.000 -0.176
99 297.00 1200.03 249 628 1.100 10000.000 0.000 -0.176
100 300.00 1200.03 239 567 1.100 10000.000 0.000 -0.176
101 303.00 1200.03 253 639 1.100 10000.000 0.000 -0.176
102 306.00 1200.03 241 552 1.100 10000.000 0.000 -0.176
103 309.00 1200.03 249 536 1.100 10000.000 0.000 -0.176
104 312.00 1200.03 281 570 1.100 10000.000 0.000 -0.176
105 315.00 1200.03 240 554 1.100 10000.000 0.000 -0.176
106 318.00 1200.03 236 533 1.100 10000.000 0.000 -0.176
107 321.00 1200.03 254 557 1.100 10000.000 0.000 -0.176
108 324.00 1200.03 250 476 1.100 10000.000 0.000 -0.176
109 327.00 1200.03 259 478 1.100 10000.000 0.000 -0.176
110 330.00 1200.03 263 466 1.100 10000.000 0.000 -0.176
111 333.00 1200.03 228 477 1.100 10000.000 0.000 -0.176
112 336.00 1200.03 230 459 1.100 10000.000 0.000 -0.176
113 339.00 1200.03 244 450 1.100 10000.000 0.000 -0.176
114 342.00 1200.03 295 461 1.100 10000.000 0.000 -0.176
115 345.00 1200.03 280 491 1.100 10000.000 0.000 -0.176
116 348.00 1200.03 256 484 1.100 10000.000 0.000 -0.176
117 351.00 1200.03 284 490 1.100 10000.000 0.000 -0.176
118 354.00 1200.03 248 483 1.100 10000.000 0.000 -0.176
119 357.00 1200.03 270 486 1.100 10000.000 0.000 -0.176
120 360.00 1200.03 257 503 1.100 10000.000 0.000 -0.176
121 363.00 1200.03 269 512 1.100 10000.000 0.000 -0.176
122 366.00 1200.03 319 545 1.100 10000.000 0.000 -0.176
123 369.00 1200.03 273 585 1.100 10000.000 0.000 -0.176
124 372.00 1200.03 262 569 1.100 10000.000 0.000 -0.176
125 375.00 1200.03 281 548 1.100 10000.000 0.000 -0.176
126 378.00 1200.03 265 636 1.100 10000.000 0.000 -0.176
127 381.00 1200.03 251 583 1.100 10000.000 0.000 -0.176
128 384.00 1200.03 242 629 1.100 10000.000 0.000 -0.176
129 387.00 1200.03 233 610 1.100 10000.000 0.000 -0.176
130 390.00 1200.03 261 615 1.100 10000.000 0.000 -0.176
131 393.00 1200.03 216 586 1.100 10000.000 0.000 -0.176
132 396.00 1200.03 248 578 1.100 10000.000 0.000 -0.176
133 399.00 1200.03 244 556 1.100 10000.000 0.000 -0.176
134 402.00 1200.03 239 613 1.100 10000.000 0.000 -0.176
135 405.00 1200.03 247 551 1.100 10000.000 0.000 -0.176
136 408.00 1200.03 262 578 1.100 10000.000 0.000 -0.176
137 411.00 1200.03 237 533 1.100 10000.000 0.000 -0.176
138 414.00 1200.03 259 557 1.100 10000.000 0.000 -0.176
139 417.00 1200.03 263 499 1.100 10000.000 0.000 -0.176
140 420.00 1200.03 263 491 1.100 10000.000 0.000 -0.176
141 423.00 1200.03 262 469 1.100 10000.000 0.000 -0.176
142 426.00 1200.03 249 494 1.100 10000.000 0.000 -0.176
143 429.00 1200.03 251 495 1.100 10000.000 0.000 -0.176
144 432.00 1200.03 227 467 1.100 10000.000 0.000 -0.176
