# BinNR microsec tot-time (s)  O-Beam AUX Ampl(V) f(Hz) phase(deg) chi(pos)
0 0.00 1200.02 90 288 2.000 10000.000 0.000 1.110
1 3.00 1200.02 189 564 2.000 10000.000 0.000 1.110
2 6.00 1200.02 205 551 2.000 10000.000 0.000 1.110
3 9.00 1200.02 210 576 2.000 10000.000 0.000 1.110
4 12.00 1200.02 206 651 2.000 10000.000 0.000 1.110
5 15.00 1200.02 207 656 2.000 10000.000 0.000 1.110
6 18.00 1200.02 189 610 2.000 10000.000 0.000 1.110
7 21.00 1200.02 226 612 2.000 10000.000 0.000 1.110
8 24.00 1200.02 187 623 2.000 10000.000 0.000 1.110
9 27.00 1200.02 215 677 2.000 10000.000 0.000 1.110
10 30.00 1200.02 183 639 2.000 10000.000 0.000 1.110
11 33.00 1200.02 171 603 2.000 10000.000 0.000 1.110
12 36.00 1200.02 169 608 2.000 10000.000 0.000 1.110
13 39.00 1200.02 169 569 2.000 10000.000 0.000 1.110
14 42.00 1200.02 159 542 2.000 10000.000 0.000 1.110
15 45.00 1200.02 166 555 2.000 10000.000 0.000 1.110
16 48.00 1200.02 195 562 2.000 10000.000 0.000 1.110
17 51.00 1200.02 188 566 2.000 10000.000 0.000 1.110
18 54.00 1200.02 192 546 2.000 10000.000 0.000 1.110
19 57.00 1200.02 223 551 2.000 10000.000 0.000 1.110
20 60.00 1200.02 196 582 2.000 10000.000 0.000 1.110
21 63.00 1200.02 181 613 2.000 10000.000 0.000 1.110
22 66.00 1200.02 200 645 2.000 10000.000 0.000 1.110
23 69.00 1200.02 192 634 2.000 10000.000 0.000 1.110
24 72.00 1200.02 225 659 2.000 10000.000 0.000 1.110
25 75.00 1200.02 234 658 2.000 10000.000 0.000 1.110
26 78.00 1200.02 243 620 2.000 10000.000 0.000 1.110
27 81.00 1200.02 217 627 2.000 10000.000 0.000 1.110
28 84.00 1200.02 236 648 2.000 10000.000 0.000 1.110
29 87.00 1200.02 216 578 2.000 10000.000 0.000 1.110
30 90.00 1200.02 213 581 2.000 10000.000 0.000 1.110
31 93.00 1200.02 245 532 2.000 10000.000 0.000 1.110
32 96.00 1200.02 231 536 2.000 10000.000 0.000 1.110
33 99.00 1200.02 212 528 2.000 10000.000 0.000 1.110
34 102.00 1200.02 195 540 2.000 10000.000 0.000 1.110
35 105.00 1200.02 211 576 2.000 10000.000 0.000 1.110
36 108.00 1200.02 244 608 2.000 10000.000 0.000 1.110
37 111.00 1200.02 224 550 2.000 10000.000 0.000 1.110
38 114.00 1200.02 220 637 2.000 10000.000 0.000 1.110
39 117.00 1200.02 192 599 2.000 10000.000 0.000 1.110
40 120.00 1200.02 213 664 2.000 10000.000 0.000 1.110
41 123.00 1200.02 176 644 2.000 10000.000 0.000 1.110
42 126.00 1200.02 186 695 2.000 10000.000 0.000 1.110
43 129.00 1200.02 196 652 2.000 10000.000 0.000 1.110
44 132.00 1200.02 177 650 2.000 10000.000 0.000 1.110
45 135.00 1200.02 205 606 2.000 10000.000 0.000 1.110
46 138.00 1200.02 178 573 2.000 10000.000 0.000 1.110
47 141.00 1200.02 171 518 2.000 10000.000 0.000 1.110
48 144.00 1200.02 175 560 2.000 10000.000 0.000 1.110
49 147.00 1200.02 187 523 2.000 10000.000 0.000 1.110
50 150.00 1200.02 188 545 2.000 10000.000 0.000 1.110
51 153.00 1200.02 167 552 2.000 10000.000 0.000 1.110
52 156.00 1200.02 186 557 2.000 10000.000 0.000 1.110
53 159.00 1200.02 181 537 2.000 10000.000 0.000 1.110
54 162.00 1200.02 188 567 2.000 10000.000 0.000 1.110
55 165.00 1200.02 191 607 2.000 10000.000 0.000 1.110
56 168.00 1200.02 189 705 2.000 10000.000 0.000 1.110
57 171.00 1200.02 212 705 2.000 10000.000 0.000 1.110
58 174.00 1200.02 240 605 2.000 10000.000 0.000 1.110
59 177.00 1200.02 218 624 2.000 10000.000 0.000 1.110
60 180.00 1200.02 215 621 2.000 10000.000 0.000 1.110
61 183.00 1200.02 214 629 2.000 10000.000 0.000 1.110
62 186.00 1200.02 246 671 2.000 10000.000 0.000 1.110
63 189.00 1200.02 220 587 2.000 10000.000 0.000 1.110
64 192.00 1200.02 208 611 2.000 10000.000 0.000 1.110
65 195.00 1200.02 207 580 2.000 10000.000 0.000 1.110
66 198.00 1200.02 222 562 2.000 10000.000 0.000 1.110
67 201.00 1200.02 226 563 2.000 10000.000 0.000 1.110
68 204.00 1200.02 232 612 2.000 10000.000 0.000 1.110
69 207.00 1200.02 222 571 2.000 10000.000 0.000 1.110
70 210.00 1200.02 224 568 2.000 10000.000 0.000 1.110
71 213.00 1200.02 197 626 2.000 10000.000 0.000 1.110
72 216.00 1200.02 226 636 2.000 10000.000 0.000 1.110
73 219.00 1200.02 211 657 2.000 10000.000 0.000 1.110
74 222.00 1200.02 211 640 2.000 10000.000 0.000 1.110
75 225.00 1200.02 203 587 2.000 10000.000 0.000 1.110
76 228.00 1200.02 192 648 2.000 10000.000 0.000 1.110
77 231.00 1200.02 178 601 2.000 10000.000 0.000 1.110
78 234.00 1200.02 194 609 2.000 10000.000 0.000 1.110
79 237.00 1200.02 160 574 2.000 10000.000 0.000 1.110
80 240.00 1200.02 170 610 2.000 10000.000 0.000 1.110
81 243.00 1200.02 161 578 2.000 10000.000 0.000 1.110
82 246.00 1200.02 167 496 2.000 10000.000 0.000 1.110
83 249.00 1200.02 164 565 2.000 10000.000 0.000 1.110
84 252.00 1200.02 171 516 2.000 10000.000 0.000 1.110
85 255.00 1200.02 163 522 2.000 10000.000 0.000 1.110
86 258.00 1200.02 181 589 2.000 10000.000 0.000 1.110
87 261.00 1200.02 189 576 2.000 10000.000 0.000 1.110
88 264.00 1200.02 186 575 2.000 10000.000 0.000 1.110
89 267.00 1200.02 215 618 2.000 10000.000 0.000 1.110
90 270.00 1200.02 219 638 2.000 10000.000 0.000 1.110
91 273.00 1200.02 247 592 2.000 10000.000 0.000 1.110
92 276.00 1200.02 218 629 2.000 10000.000 0.000 1.110
93 279.00 1200.02 213 623 2.000 10000.000 0.000 1.110
94 282.00 1200.02 230 675 2.000 10000.000 0.000 1.110
95 285.00 1200.02 219 602 2.000 10000.000 0.000 1.110
96 288.00 1200.02 225 612 2.000 10000.000 0.000 1.110
97 291.00 1200.02 234 591 2.000 10000.000 0.000 1.110
98 294.00 1200.02 215 563 2.000 10000.000 0.000 1.110
99 297.00 1200.02 223 540 2.000 10000.000 0.000 1.110
100 300.00 1200.02 207 592 2.000 10000.000 0.000 1.110
101 303.00 1200.02 184 431 2.000 10000.000 0.000 1.110
