Scan on 03/02/2025@11:13 | Measure Time (sec):60| Bg detector (cnts/sec):0.000000| Bg monitor (cnts/sec):0.00000060| Mon.lim.  (cnts/sec):  0
Ioff (cnts/sec): 0.103026   ErrIoff: 0.000826  Pp.d.Pa:  0.000000  ErrPp.d.Pal:  0.000000	Pol: 0.000000	ErrPol: 0.000000
Power Supply 1 (mA): OFF| Power Supply 2 (mA): OFF| Power Supply 3 (mA): OFF| Power Supply 4 (mA): OFF| Power Supply 5 (mA): OFF| Power Supply 6 (mA): OFF   
I Scan (mA):  Detector (cnts):   Monitor_Max,Min (cnts/sec):   Norm(1/s):   err(1/s) :     FlippRatio:     ErrFlippRatio        
3600000.00000000	11926.00000000	422.00000000	321.00000000	0.54983864	0.00626803	0.18737565	0.00261181
3400000.00000000	10773.00000000	388.00000000	304.00000000	0.50974733	0.00603446	0.20211262	0.00289014
3200000.00000000	9177.00000000	397.00000000	323.00000000	0.42951418	0.00536070	0.23986721	0.00355870
3000000.00000000	6715.00000000	406.00000000	312.00000000	0.31160093	0.00435488	0.33063563	0.00532788
2800000.00000000	4331.00000000	401.00000000	302.00000000	0.20230755	0.00337074	0.50925618	0.00941703
2600000.00000000	2242.00000000	391.00000000	292.00000000	0.10627607	0.00236075	0.96942208	0.02289502
2400000.00000000	874.00000000	409.00000000	306.00000000	0.04093869	0.00141283	2.51660180	0.08916531
2200000.00000000	434.00000000	413.00000000	327.00000000	0.02001107	0.00097013	5.14846984	0.25298822
2000000.00000000	1025.00000000	413.00000000	326.00000000	0.04755939	0.00152042	2.16626764	0.07139973
1800000.00000000	2655.00000000	399.00000000	312.00000000	0.12568047	0.00258787	0.81974842	0.01811484
1600000.00000000	4781.00000000	404.00000000	316.00000000	0.22526385	0.00360618	0.45735864	0.00818936
1400000.00000000	7252.00000000	389.00000000	326.00000000	0.33583403	0.00455798	0.30677764	0.00483641
1200000.00000000	9400.00000000	408.00000000	296.00000000	0.43837150	0.00542268	0.23502069	0.00346492
1000000.00000000	11081.00000000	405.00000000	287.00000000	0.51486851	0.00601997	0.20010230	0.00283727
800000.00000000	11877.00000000	419.00000000	306.00000000	0.55193085	0.00630910	0.18666536	0.00260668
600000.00000000	11336.00000000	414.00000000	309.00000000	0.51945195	0.00601394	0.19833667	0.00279350
400000.00000000	10320.00000000	405.00000000	298.00000000	0.47986608	0.00574634	0.21469817	0.00309446
200000.00000000	8116.00000000	394.00000000	326.00000000	0.37596702	0.00489534	0.27403034	0.00419075
0.00000000	5588.00000000	417.00000000	321.00000000	0.26132909	0.00392621	0.39423996	0.00671436
