Start Motor Scan on 04/02/2025@12:35 | Measure Time (sec):60| Bg detector (cnts/sec):0.000000| Bg monitor (cnts/sec):0.00000060| Mon.lim.  (cnts/sec):  0
Ioff (cnts/sec): 0.103026   ErrIoff: 0.000826  Pp.d.Pa:  0.000000  ErrPp.d.Pal:  0.000000	Pol: 0.000000	ErrPol: 0.000000
Power Supply 1 (mA): OFF| Power Supply 2 (mA): OFF| Power Supply 3 (mA): OFF| Power Supply 4 (mA): OFF| Power Supply 5 (mA): OFF| Power Supply 6 (mA): OFF   
Position (Steps)Detector (cnts):   Monitor_Max,Min (cnts/sec):   Norm(1/s):   err(1/s) :     FlippRatio:     ErrFlippRatio        
3600000.00000000	6157.00000000	413.00000000	337.00000000	0.27255423	0.00391838	0.37800320	0.00622298
3400000.00000000	6346.00000000	422.00000000	328.00000000	0.28053579	0.00398505	0.36724858	0.00599105
3200000.00000000	6482.00000000	430.00000000	332.00000000	0.28438556	0.00400314	0.36227708	0.00586940
3000000.00000000	6372.00000000	410.00000000	307.00000000	0.28013717	0.00397065	0.36777116	0.00598958
2800000.00000000	6469.00000000	440.00000000	338.00000000	0.28519155	0.00401978	0.36125323	0.00585863
2600000.00000000	6351.00000000	421.00000000	334.00000000	0.28177825	0.00400307	0.36562925	0.00596505
2400000.00000000	6347.00000000	424.00000000	324.00000000	0.27989945	0.00397471	0.36808350	0.00600318
2200000.00000000	6116.00000000	423.00000000	327.00000000	0.27058355	0.00390004	0.38075622	0.00628059
2000000.00000000	6098.00000000	429.00000000	340.00000000	0.26762047	0.00385852	0.38497194	0.00635161
1800000.00000000	5985.00000000	413.00000000	320.00000000	0.26531607	0.00385772	0.38831560	0.00644830
1600000.00000000	5912.00000000	436.00000000	326.00000000	0.26085422	0.00380946	0.39495765	0.00658063
1400000.00000000	6074.00000000	411.00000000	322.00000000	0.26908253	0.00388949	0.38288019	0.00632941
1200000.00000000	6095.00000000	423.00000000	328.00000000	0.26771204	0.00386092	0.38484026	0.00635081
1000000.00000000	5996.00000000	422.00000000	342.00000000	0.26486439	0.00384693	0.38897781	0.00645387
800000.00000000	6076.00000000	417.00000000	336.00000000	0.26957718	0.00389676	0.38217764	0.00631794
600000.00000000	6228.00000000	425.00000000	330.00000000	0.27670162	0.00396170	0.37233743	0.00611056
400000.00000000	6241.00000000	425.00000000	329.00000000	0.27354810	0.00390764	0.37662981	0.00617030
200000.00000000	6374.00000000	418.00000000	314.00000000	0.28090432	0.00398209	0.36676677	0.00597387
0.00000000	6237.00000000	424.00000000	324.00000000	0.27509704	0.00393341	0.37450920	0.00613989
