# BinNR microsec tot-time (s)  O-Beam AUX Ampl(V) f(Hz) phase(deg) chi(pos)
0 0.00 1200.00 161 483 1.100 10000.000 0.000 -0.846
1 3.00 1200.00 330 967 1.100 10000.000 0.000 -0.846
2 6.00 1200.00 340 1015 1.100 10000.000 0.000 -0.846
3 9.00 1200.00 294 954 1.100 10000.000 0.000 -0.846
4 12.00 1200.00 342 1009 1.100 10000.000 0.000 -0.846
5 15.00 1200.00 289 1008 1.100 10000.000 0.000 -0.846
6 18.00 1200.00 341 1025 1.100 10000.000 0.000 -0.846
7 21.00 1200.00 325 1039 1.100 10000.000 0.000 -0.846
8 24.00 1200.00 326 1083 1.100 10000.000 0.000 -0.846
9 27.00 1200.00 309 977 1.100 10000.000 0.000 -0.846
10 30.00 1200.00 336 1089 1.100 10000.000 0.000 -0.846
11 33.00 1200.00 334 1051 1.100 10000.000 0.000 -0.846
12 36.00 1200.00 339 1037 1.100 10000.000 0.000 -0.846
13 39.00 1200.00 345 1020 1.100 10000.000 0.000 -0.846
14 42.00 1200.00 338 1065 1.100 10000.000 0.000 -0.846
15 45.00 1200.00 355 1048 1.100 10000.000 0.000 -0.846
16 48.00 1200.00 337 1023 1.100 10000.000 0.000 -0.846
17 51.00 1200.00 358 1011 1.100 10000.000 0.000 -0.846
18 54.00 1200.00 331 1018 1.100 10000.000 0.000 -0.846
19 57.00 1200.00 328 1012 1.100 10000.000 0.000 -0.846
20 60.00 1200.00 356 965 1.100 10000.000 0.000 -0.846
21 63.00 1200.00 294 971 1.100 10000.000 0.000 -0.846
22 66.00 1200.00 300 1006 1.100 10000.000 0.000 -0.846
23 69.00 1200.00 347 983 1.100 10000.000 0.000 -0.846
24 72.00 1200.00 315 1020 1.100 10000.000 0.000 -0.846
25 75.00 1200.00 284 961 1.100 10000.000 0.000 -0.846
26 78.00 1200.00 276 951 1.100 10000.000 0.000 -0.846
27 81.00 1200.00 260 982 1.100 10000.000 0.000 -0.846
28 84.00 1200.00 312 993 1.100 10000.000 0.000 -0.846
29 87.00 1200.00 307 937 1.100 10000.000 0.000 -0.846
30 90.00 1200.00 310 997 1.100 10000.000 0.000 -0.846
31 93.00 1200.00 291 955 1.100 10000.000 0.000 -0.846
32 96.00 1200.00 286 952 1.100 10000.000 0.000 -0.846
33 99.00 1200.00 292 902 1.100 10000.000 0.000 -0.846
34 102.00 1200.00 287 979 1.100 10000.000 0.000 -0.846
35 105.00 1200.00 290 968 1.100 10000.000 0.000 -0.846
36 108.00 1200.00 287 1022 1.100 10000.000 0.000 -0.846
37 111.00 1200.00 335 963 1.100 10000.000 0.000 -0.846
38 114.00 1200.00 321 1038 1.100 10000.000 0.000 -0.846
39 117.00 1200.00 306 975 1.100 10000.000 0.000 -0.846
40 120.00 1200.00 330 963 1.100 10000.000 0.000 -0.846
41 123.00 1200.00 315 1020 1.100 10000.000 0.000 -0.846
42 126.00 1200.00 325 1039 1.100 10000.000 0.000 -0.846
43 129.00 1200.00 312 1003 1.100 10000.000 0.000 -0.846
44 132.00 1200.00 348 1061 1.100 10000.000 0.000 -0.846
45 135.00 1200.00 323 1053 1.100 10000.000 0.000 -0.846
46 138.00 1200.00 297 1073 1.100 10000.000 0.000 -0.846
47 141.00 1200.00 345 1020 1.100 10000.000 0.000 -0.846
48 144.00 1200.00 345 1112 1.100 10000.000 0.000 -0.846
49 147.00 1200.00 351 1033 1.100 10000.000 0.000 -0.846
50 150.00 1200.00 375 1118 1.100 10000.000 0.000 -0.846
51 153.00 1200.00 321 1068 1.100 10000.000 0.000 -0.846
52 156.00 1200.00 360 1023 1.100 10000.000 0.000 -0.846
53 159.00 1200.00 343 1061 1.100 10000.000 0.000 -0.846
54 162.00 1200.00 347 969 1.100 10000.000 0.000 -0.846
55 165.00 1200.00 342 1000 1.100 10000.000 0.000 -0.846
56 168.00 1200.00 298 1032 1.100 10000.000 0.000 -0.846
57 171.00 1200.00 333 1019 1.100 10000.000 0.000 -0.846
58 174.00 1200.00 278 1002 1.100 10000.000 0.000 -0.846
59 177.00 1200.00 264 979 1.100 10000.000 0.000 -0.846
60 180.00 1200.00 310 984 1.100 10000.000 0.000 -0.846
61 183.00 1200.00 327 963 1.100 10000.000 0.000 -0.846
62 186.00 1200.00 315 1043 1.100 10000.000 0.000 -0.846
63 189.00 1200.00 317 963 1.100 10000.000 0.000 -0.846
64 192.00 1200.00 339 1006 1.100 10000.000 0.000 -0.846
65 195.00 1200.00 304 937 1.100 10000.000 0.000 -0.846
66 198.00 1200.00 291 950 1.100 10000.000 0.000 -0.846
67 201.00 1200.00 295 977 1.100 10000.000 0.000 -0.846
68 204.00 1200.00 302 989 1.100 10000.000 0.000 -0.846
69 207.00 1200.00 290 950 1.100 10000.000 0.000 -0.846
70 210.00 1200.00 316 1010 1.100 10000.000 0.000 -0.846
71 213.00 1200.00 322 1057 1.100 10000.000 0.000 -0.846
72 216.00 1200.00 335 1042 1.100 10000.000 0.000 -0.846
73 219.00 1200.00 310 1012 1.100 10000.000 0.000 -0.846
74 222.00 1200.00 325 1001 1.100 10000.000 0.000 -0.846
75 225.00 1200.00 333 1001 1.100 10000.000 0.000 -0.846
76 228.00 1200.00 314 1039 1.100 10000.000 0.000 -0.846
77 231.00 1200.00 342 980 1.100 10000.000 0.000 -0.846
78 234.00 1200.00 306 1015 1.100 10000.000 0.000 -0.846
79 237.00 1200.00 327 1045 1.100 10000.000 0.000 -0.846
80 240.00 1200.00 344 1131 1.100 10000.000 0.000 -0.846
81 243.00 1200.00 344 1038 1.100 10000.000 0.000 -0.846
82 246.00 1200.00 342 987 1.100 10000.000 0.000 -0.846
83 249.00 1200.00 326 1015 1.100 10000.000 0.000 -0.846
84 252.00 1200.00 350 1021 1.100 10000.000 0.000 -0.846
85 255.00 1200.00 323 1084 1.100 10000.000 0.000 -0.846
86 258.00 1200.00 334 1088 1.100 10000.000 0.000 -0.846
87 261.00 1200.00 353 1107 1.100 10000.000 0.000 -0.846
88 264.00 1200.00 344 1055 1.100 10000.000 0.000 -0.846
89 267.00 1200.00 332 1036 1.100 10000.000 0.000 -0.846
90 270.00 1200.00 331 1053 1.100 10000.000 0.000 -0.846
91 273.00 1200.00 319 992 1.100 10000.000 0.000 -0.846
92 276.00 1200.00 344 991 1.100 10000.000 0.000 -0.846
93 279.00 1200.00 309 995 1.100 10000.000 0.000 -0.846
94 282.00 1200.00 333 930 1.100 10000.000 0.000 -0.846
95 285.00 1200.00 307 1010 1.100 10000.000 0.000 -0.846
96 288.00 1200.00 334 960 1.100 10000.000 0.000 -0.846
97 291.00 1200.00 317 895 1.100 10000.000 0.000 -0.846
98 294.00 1200.00 281 878 1.100 10000.000 0.000 -0.846
99 297.00 1200.00 303 988 1.100 10000.000 0.000 -0.846
100 300.00 1200.00 315 1000 1.100 10000.000 0.000 -0.846
101 303.00 1200.00 312 966 1.100 10000.000 0.000 -0.846
102 306.00 1200.00 326 1014 1.100 10000.000 0.000 -0.846
103 309.00 1200.00 323 988 1.100 10000.000 0.000 -0.846
104 312.00 1200.00 327 968 1.100 10000.000 0.000 -0.846
105 315.00 1200.00 360 1025 1.100 10000.000 0.000 -0.846
106 318.00 1200.00 352 1037 1.100 10000.000 0.000 -0.846
107 321.00 1200.00 328 1014 1.100 10000.000 0.000 -0.846
108 324.00 1200.00 346 1030 1.100 10000.000 0.000 -0.846
109 327.00 1200.00 313 1004 1.100 10000.000 0.000 -0.846
110 330.00 1200.00 323 1036 1.100 10000.000 0.000 -0.846
111 333.00 1200.00 320 1027 1.100 10000.000 0.000 -0.846
112 336.00 1200.00 355 1043 1.100 10000.000 0.000 -0.846
113 339.00 1200.00 378 1019 1.100 10000.000 0.000 -0.846
114 342.00 1200.00 365 1045 1.100 10000.000 0.000 -0.846
115 345.00 1200.00 338 1050 1.100 10000.000 0.000 -0.846
116 348.00 1200.00 372 1028 1.100 10000.000 0.000 -0.846
117 351.00 1200.00 375 1077 1.100 10000.000 0.000 -0.846
118 354.00 1200.00 339 1043 1.100 10000.000 0.000 -0.846
119 357.00 1200.00 343 1030 1.100 10000.000 0.000 -0.846
120 360.00 1200.00 345 1036 1.100 10000.000 0.000 -0.846
121 363.00 1200.00 336 982 1.100 10000.000 0.000 -0.846
122 366.00 1200.00 366 1028 1.100 10000.000 0.000 -0.846
123 369.00 1200.00 312 970 1.100 10000.000 0.000 -0.846
124 372.00 1200.00 305 949 1.100 10000.000 0.000 -0.846
125 375.00 1200.00 280 921 1.100 10000.000 0.000 -0.846
126 378.00 1200.00 297 1023 1.100 10000.000 0.000 -0.846
127 381.00 1200.00 287 949 1.100 10000.000 0.000 -0.846
128 384.00 1200.00 322 934 1.100 10000.000 0.000 -0.846
129 387.00 1200.00 296 981 1.100 10000.000 0.000 -0.846
130 390.00 1200.00 308 991 1.100 10000.000 0.000 -0.846
131 393.00 1200.00 304 993 1.100 10000.000 0.000 -0.846
132 396.00 1200.00 320 982 1.100 10000.000 0.000 -0.846
133 399.00 1200.00 287 936 1.100 10000.000 0.000 -0.846
134 402.00 1200.00 309 995 1.100 10000.000 0.000 -0.846
