# BinNR microsec tot-time (s)  O-Beam AUX Ampl(V) f(Hz) phase(deg) chi(pos)
0 0.00 1200.00 183 530 1.100 10000.000 0.000 1.340
1 3.00 1200.00 361 1075 1.100 10000.000 0.000 1.340
2 6.00 1200.00 362 1020 1.100 10000.000 0.000 1.340
3 9.00 1200.00 330 1013 1.100 10000.000 0.000 1.340
4 12.00 1200.00 385 1100 1.100 10000.000 0.000 1.340
5 15.00 1200.00 357 1055 1.100 10000.000 0.000 1.340
6 18.00 1200.00 357 1098 1.100 10000.000 0.000 1.340
7 21.00 1200.00 349 1050 1.100 10000.000 0.000 1.340
8 24.00 1200.00 352 1112 1.100 10000.000 0.000 1.340
9 27.00 1200.00 363 1033 1.100 10000.000 0.000 1.340
10 30.00 1200.00 350 1114 1.100 10000.000 0.000 1.340
11 33.00 1200.00 331 1114 1.100 10000.000 0.000 1.340
12 36.00 1200.00 401 1072 1.100 10000.000 0.000 1.340
13 39.00 1200.00 384 1096 1.100 10000.000 0.000 1.340
14 42.00 1200.00 378 1118 1.100 10000.000 0.000 1.340
15 45.00 1200.00 352 1074 1.100 10000.000 0.000 1.340
16 48.00 1200.00 381 1068 1.100 10000.000 0.000 1.340
17 51.00 1200.00 346 1048 1.100 10000.000 0.000 1.340
18 54.00 1200.00 357 1056 1.100 10000.000 0.000 1.340
19 57.00 1200.00 328 1089 1.100 10000.000 0.000 1.340
20 60.00 1200.00 356 1096 1.100 10000.000 0.000 1.340
21 63.00 1200.00 348 1066 1.100 10000.000 0.000 1.340
22 66.00 1200.00 329 1050 1.100 10000.000 0.000 1.340
23 69.00 1200.00 371 1024 1.100 10000.000 0.000 1.340
24 72.00 1200.00 340 1072 1.100 10000.000 0.000 1.340
25 75.00 1200.00 332 1015 1.100 10000.000 0.000 1.340
26 78.00 1200.00 339 1057 1.100 10000.000 0.000 1.340
27 81.00 1200.00 336 977 1.100 10000.000 0.000 1.340
28 84.00 1200.00 339 1069 1.100 10000.000 0.000 1.340
29 87.00 1200.00 353 989 1.100 10000.000 0.000 1.340
30 90.00 1200.00 318 1021 1.100 10000.000 0.000 1.340
31 93.00 1200.00 324 1014 1.100 10000.000 0.000 1.340
32 96.00 1200.00 350 1054 1.100 10000.000 0.000 1.340
33 99.00 1200.00 364 1077 1.100 10000.000 0.000 1.340
34 102.00 1200.00 365 1025 1.100 10000.000 0.000 1.340
35 105.00 1200.00 339 1039 1.100 10000.000 0.000 1.340
36 108.00 1200.00 377 1069 1.100 10000.000 0.000 1.340
37 111.00 1200.00 325 1066 1.100 10000.000 0.000 1.340
38 114.00 1200.00 370 1076 1.100 10000.000 0.000 1.340
39 117.00 1200.00 358 1042 1.100 10000.000 0.000 1.340
40 120.00 1200.00 352 1115 1.100 10000.000 0.000 1.340
41 123.00 1200.00 335 1060 1.100 10000.000 0.000 1.340
42 126.00 1200.00 379 1143 1.100 10000.000 0.000 1.340
43 129.00 1200.00 342 1040 1.100 10000.000 0.000 1.340
44 132.00 1200.00 356 1070 1.100 10000.000 0.000 1.340
45 135.00 1200.00 373 1068 1.100 10000.000 0.000 1.340
46 138.00 1200.00 361 1123 1.100 10000.000 0.000 1.340
47 141.00 1200.00 358 1062 1.100 10000.000 0.000 1.340
48 144.00 1200.00 368 1029 1.100 10000.000 0.000 1.340
49 147.00 1200.00 354 1062 1.100 10000.000 0.000 1.340
50 150.00 1200.00 374 1003 1.100 10000.000 0.000 1.340
51 153.00 1200.00 369 1025 1.100 10000.000 0.000 1.340
52 156.00 1200.00 361 1069 1.100 10000.000 0.000 1.340
53 159.00 1200.00 408 1038 1.100 10000.000 0.000 1.340
54 162.00 1200.00 366 1174 1.100 10000.000 0.000 1.340
55 165.00 1200.00 349 1107 1.100 10000.000 0.000 1.340
56 168.00 1200.00 382 1090 1.100 10000.000 0.000 1.340
57 171.00 1200.00 322 1085 1.100 10000.000 0.000 1.340
58 174.00 1200.00 390 1111 1.100 10000.000 0.000 1.340
59 177.00 1200.00 311 1051 1.100 10000.000 0.000 1.340
60 180.00 1200.00 350 1053 1.100 10000.000 0.000 1.340
61 183.00 1200.00 331 1001 1.100 10000.000 0.000 1.340
62 186.00 1200.00 334 1047 1.100 10000.000 0.000 1.340
63 189.00 1200.00 362 1045 1.100 10000.000 0.000 1.340
64 192.00 1200.00 350 1045 1.100 10000.000 0.000 1.340
65 195.00 1200.00 334 1064 1.100 10000.000 0.000 1.340
66 198.00 1200.00 350 1030 1.100 10000.000 0.000 1.340
67 201.00 1200.00 336 1018 1.100 10000.000 0.000 1.340
68 204.00 1200.00 347 1044 1.100 10000.000 0.000 1.340
69 207.00 1200.00 392 1085 1.100 10000.000 0.000 1.340
70 210.00 1200.00 356 1009 1.100 10000.000 0.000 1.340
71 213.00 1200.00 329 1025 1.100 10000.000 0.000 1.340
72 216.00 1200.00 356 1104 1.100 10000.000 0.000 1.340
73 219.00 1200.00 354 1031 1.100 10000.000 0.000 1.340
74 222.00 1200.00 370 1064 1.100 10000.000 0.000 1.340
75 225.00 1200.00 373 1083 1.100 10000.000 0.000 1.340
76 228.00 1200.00 357 1097 1.100 10000.000 0.000 1.340
77 231.00 1200.00 344 1048 1.100 10000.000 0.000 1.340
78 234.00 1200.00 384 1098 1.100 10000.000 0.000 1.340
79 237.00 1200.00 382 1075 1.100 10000.000 0.000 1.340
80 240.00 1200.00 364 1072 1.100 10000.000 0.000 1.340
81 243.00 1200.00 336 1105 1.100 10000.000 0.000 1.340
82 246.00 1200.00 373 1087 1.100 10000.000 0.000 1.340
83 249.00 1200.00 340 1034 1.100 10000.000 0.000 1.340
84 252.00 1200.00 383 1073 1.100 10000.000 0.000 1.340
85 255.00 1200.00 351 1070 1.100 10000.000 0.000 1.340
86 258.00 1200.00 381 1055 1.100 10000.000 0.000 1.340
87 261.00 1200.00 381 1086 1.100 10000.000 0.000 1.340
88 264.00 1200.00 361 1097 1.100 10000.000 0.000 1.340
89 267.00 1200.00 363 1011 1.100 10000.000 0.000 1.340
90 270.00 1200.00 351 1099 1.100 10000.000 0.000 1.340
91 273.00 1200.00 344 1014 1.100 10000.000 0.000 1.340
92 276.00 1200.00 325 1041 1.100 10000.000 0.000 1.340
93 279.00 1200.00 307 1050 1.100 10000.000 0.000 1.340
94 282.00 1200.00 350 1050 1.100 10000.000 0.000 1.340
95 285.00 1200.00 331 1033 1.100 10000.000 0.000 1.340
96 288.00 1200.00 333 1042 1.100 10000.000 0.000 1.340
97 291.00 1200.00 332 992 1.100 10000.000 0.000 1.340
98 294.00 1200.00 334 1010 1.100 10000.000 0.000 1.340
99 297.00 1200.00 363 1108 1.100 10000.000 0.000 1.340
100 300.00 1200.00 312 1066 1.100 10000.000 0.000 1.340
101 303.00 1200.00 381 1028 1.100 10000.000 0.000 1.340
102 306.00 1200.00 361 1054 1.100 10000.000 0.000 1.340
103 309.00 1200.00 366 1033 1.100 10000.000 0.000 1.340
104 312.00 1200.00 330 1123 1.100 10000.000 0.000 1.340
105 315.00 1200.00 365 1021 1.100 10000.000 0.000 1.340
106 318.00 1200.00 346 1114 1.100 10000.000 0.000 1.340
107 321.00 1200.00 414 1049 1.100 10000.000 0.000 1.340
108 324.00 1200.00 368 1019 1.100 10000.000 0.000 1.340
109 327.00 1200.00 340 1048 1.100 10000.000 0.000 1.340
110 330.00 1200.00 361 1079 1.100 10000.000 0.000 1.340
111 333.00 1200.00 382 1084 1.100 10000.000 0.000 1.340
112 336.00 1200.00 360 1066 1.100 10000.000 0.000 1.340
113 339.00 1200.00 359 1067 1.100 10000.000 0.000 1.340
114 342.00 1200.00 380 1057 1.100 10000.000 0.000 1.340
115 345.00 1200.00 349 1046 1.100 10000.000 0.000 1.340
116 348.00 1200.00 370 1096 1.100 10000.000 0.000 1.340
117 351.00 1200.00 337 1070 1.100 10000.000 0.000 1.340
118 354.00 1200.00 378 1053 1.100 10000.000 0.000 1.340
119 357.00 1200.00 365 1083 1.100 10000.000 0.000 1.340
120 360.00 1200.00 368 1112 1.100 10000.000 0.000 1.340
121 363.00 1200.00 349 1066 1.100 10000.000 0.000 1.340
122 366.00 1200.00 364 1070 1.100 10000.000 0.000 1.340
123 369.00 1200.00 367 1147 1.100 10000.000 0.000 1.340
124 372.00 1200.00 381 1010 1.100 10000.000 0.000 1.340
125 375.00 1200.00 360 1021 1.100 10000.000 0.000 1.340
126 378.00 1200.00 339 1053 1.100 10000.000 0.000 1.340
127 381.00 1200.00 342 999 1.100 10000.000 0.000 1.340
128 384.00 1200.00 372 1095 1.100 10000.000 0.000 1.340
129 387.00 1200.00 337 992 1.100 10000.000 0.000 1.340
130 390.00 1200.00 326 1047 1.100 10000.000 0.000 1.340
131 393.00 1200.00 373 1066 1.100 10000.000 0.000 1.340
132 396.00 1200.00 387 1108 1.100 10000.000 0.000 1.340
133 399.00 1200.00 360 1009 1.100 10000.000 0.000 1.340
134 402.00 1200.00 362 1080 1.100 10000.000 0.000 1.340
