# BinNR microsec tot-time (s)  O-Beam AUX Ampl(V) f(Hz) phase(deg) chi(pos)
0 0.00 1200.03 148 516 1.100 10000.000 0.000 1.154
1 3.00 1200.03 278 920 1.100 10000.000 0.000 1.154
2 6.00 1200.03 295 982 1.100 10000.000 0.000 1.154
3 9.00 1200.03 303 948 1.100 10000.000 0.000 1.154
4 12.00 1200.03 287 998 1.100 10000.000 0.000 1.154
5 15.00 1200.03 313 976 1.100 10000.000 0.000 1.154
6 18.00 1200.03 313 931 1.100 10000.000 0.000 1.154
7 21.00 1200.03 309 1024 1.100 10000.000 0.000 1.154
8 24.00 1200.03 324 985 1.100 10000.000 0.000 1.154
9 27.00 1200.03 313 1039 1.100 10000.000 0.000 1.154
10 30.00 1200.03 303 986 1.100 10000.000 0.000 1.154
11 33.00 1200.03 305 974 1.100 10000.000 0.000 1.154
12 36.00 1200.03 350 1025 1.100 10000.000 0.000 1.154
13 39.00 1200.03 316 963 1.100 10000.000 0.000 1.154
14 42.00 1200.03 331 984 1.100 10000.000 0.000 1.154
15 45.00 1200.03 303 958 1.100 10000.000 0.000 1.154
16 48.00 1200.03 335 1009 1.100 10000.000 0.000 1.154
17 51.00 1200.03 287 976 1.100 10000.000 0.000 1.154
18 54.00 1200.03 328 1003 1.100 10000.000 0.000 1.154
19 57.00 1200.03 287 943 1.100 10000.000 0.000 1.154
20 60.00 1200.03 319 979 1.100 10000.000 0.000 1.154
21 63.00 1200.03 313 973 1.100 10000.000 0.000 1.154
22 66.00 1200.03 300 961 1.100 10000.000 0.000 1.154
23 69.00 1200.03 308 903 1.100 10000.000 0.000 1.154
24 72.00 1200.03 296 965 1.100 10000.000 0.000 1.154
25 75.00 1200.03 298 900 1.100 10000.000 0.000 1.154
26 78.00 1200.03 318 947 1.100 10000.000 0.000 1.154
27 81.00 1200.03 281 859 1.100 10000.000 0.000 1.154
28 84.00 1200.03 251 872 1.100 10000.000 0.000 1.154
29 87.00 1200.03 294 864 1.100 10000.000 0.000 1.154
30 90.00 1200.03 294 895 1.100 10000.000 0.000 1.154
31 93.00 1200.03 280 870 1.100 10000.000 0.000 1.154
32 96.00 1200.03 283 845 1.100 10000.000 0.000 1.154
33 99.00 1200.03 283 895 1.100 10000.000 0.000 1.154
34 102.00 1200.03 271 910 1.100 10000.000 0.000 1.154
35 105.00 1200.03 288 928 1.100 10000.000 0.000 1.154
36 108.00 1200.03 289 937 1.100 10000.000 0.000 1.154
37 111.00 1200.03 269 899 1.100 10000.000 0.000 1.154
38 114.00 1200.03 300 909 1.100 10000.000 0.000 1.154
39 117.00 1200.03 337 912 1.100 10000.000 0.000 1.154
40 120.00 1200.03 328 980 1.100 10000.000 0.000 1.154
41 123.00 1200.03 300 943 1.100 10000.000 0.000 1.154
42 126.00 1200.03 315 969 1.100 10000.000 0.000 1.154
43 129.00 1200.03 277 1011 1.100 10000.000 0.000 1.154
44 132.00 1200.03 306 1013 1.100 10000.000 0.000 1.154
45 135.00 1200.03 298 963 1.100 10000.000 0.000 1.154
46 138.00 1200.03 364 1027 1.100 10000.000 0.000 1.154
47 141.00 1200.03 309 991 1.100 10000.000 0.000 1.154
48 144.00 1200.03 311 1013 1.100 10000.000 0.000 1.154
49 147.00 1200.03 349 1010 1.100 10000.000 0.000 1.154
50 150.00 1200.03 309 1030 1.100 10000.000 0.000 1.154
51 153.00 1200.03 314 980 1.100 10000.000 0.000 1.154
52 156.00 1200.03 317 964 1.100 10000.000 0.000 1.154
53 159.00 1200.03 320 977 1.100 10000.000 0.000 1.154
54 162.00 1200.03 280 1051 1.100 10000.000 0.000 1.154
55 165.00 1200.03 307 953 1.100 10000.000 0.000 1.154
56 168.00 1200.03 286 944 1.100 10000.000 0.000 1.154
57 171.00 1200.03 283 872 1.100 10000.000 0.000 1.154
58 174.00 1200.03 308 924 1.100 10000.000 0.000 1.154
59 177.00 1200.03 285 940 1.100 10000.000 0.000 1.154
60 180.00 1200.03 285 923 1.100 10000.000 0.000 1.154
61 183.00 1200.03 287 877 1.100 10000.000 0.000 1.154
62 186.00 1200.03 263 872 1.100 10000.000 0.000 1.154
63 189.00 1200.03 294 944 1.100 10000.000 0.000 1.154
64 192.00 1200.03 278 925 1.100 10000.000 0.000 1.154
65 195.00 1200.03 302 892 1.100 10000.000 0.000 1.154
66 198.00 1200.03 298 954 1.100 10000.000 0.000 1.154
67 201.00 1200.03 307 910 1.100 10000.000 0.000 1.154
68 204.00 1200.03 286 958 1.100 10000.000 0.000 1.154
69 207.00 1200.03 272 917 1.100 10000.000 0.000 1.154
70 210.00 1200.03 284 938 1.100 10000.000 0.000 1.154
71 213.00 1200.03 313 926 1.100 10000.000 0.000 1.154
72 216.00 1200.03 335 997 1.100 10000.000 0.000 1.154
73 219.00 1200.03 313 958 1.100 10000.000 0.000 1.154
74 222.00 1200.03 319 994 1.100 10000.000 0.000 1.154
75 225.00 1200.03 302 1031 1.100 10000.000 0.000 1.154
76 228.00 1200.03 348 995 1.100 10000.000 0.000 1.154
77 231.00 1200.03 313 947 1.100 10000.000 0.000 1.154
78 234.00 1200.03 291 1031 1.100 10000.000 0.000 1.154
79 237.00 1200.03 315 994 1.100 10000.000 0.000 1.154
80 240.00 1200.03 298 994 1.100 10000.000 0.000 1.154
81 243.00 1200.03 315 999 1.100 10000.000 0.000 1.154
82 246.00 1200.03 330 1099 1.100 10000.000 0.000 1.154
83 249.00 1200.03 312 1001 1.100 10000.000 0.000 1.154
84 252.00 1200.03 303 1037 1.100 10000.000 0.000 1.154
85 255.00 1200.03 327 1013 1.100 10000.000 0.000 1.154
86 258.00 1200.03 327 990 1.100 10000.000 0.000 1.154
87 261.00 1200.03 305 982 1.100 10000.000 0.000 1.154
88 264.00 1200.03 280 997 1.100 10000.000 0.000 1.154
89 267.00 1200.03 288 937 1.100 10000.000 0.000 1.154
90 270.00 1200.03 287 968 1.100 10000.000 0.000 1.154
91 273.00 1200.03 286 937 1.100 10000.000 0.000 1.154
92 276.00 1200.03 285 930 1.100 10000.000 0.000 1.154
93 279.00 1200.03 263 937 1.100 10000.000 0.000 1.154
94 282.00 1200.03 295 896 1.100 10000.000 0.000 1.154
95 285.00 1200.03 270 927 1.100 10000.000 0.000 1.154
96 288.00 1200.03 279 947 1.100 10000.000 0.000 1.154
97 291.00 1200.03 296 885 1.100 10000.000 0.000 1.154
98 294.00 1200.03 304 947 1.100 10000.000 0.000 1.154
99 297.00 1200.03 279 883 1.100 10000.000 0.000 1.154
100 300.00 1200.03 283 877 1.100 10000.000 0.000 1.154
101 303.00 1200.03 253 853 1.100 10000.000 0.000 1.154
102 306.00 1200.03 288 947 1.100 10000.000 0.000 1.154
103 309.00 1200.03 308 939 1.100 10000.000 0.000 1.154
104 312.00 1200.03 335 975 1.100 10000.000 0.000 1.154
105 315.00 1200.03 297 942 1.100 10000.000 0.000 1.154
106 318.00 1200.03 290 932 1.100 10000.000 0.000 1.154
107 321.00 1200.03 300 900 1.100 10000.000 0.000 1.154
108 324.00 1200.03 312 1019 1.100 10000.000 0.000 1.154
109 327.00 1200.03 316 1023 1.100 10000.000 0.000 1.154
110 330.00 1200.03 324 1008 1.100 10000.000 0.000 1.154
111 333.00 1200.03 329 1036 1.100 10000.000 0.000 1.154
112 336.00 1200.03 335 1002 1.100 10000.000 0.000 1.154
113 339.00 1200.03 339 1000 1.100 10000.000 0.000 1.154
114 342.00 1200.03 337 990 1.100 10000.000 0.000 1.154
115 345.00 1200.03 313 951 1.100 10000.000 0.000 1.154
116 348.00 1200.03 319 1036 1.100 10000.000 0.000 1.154
117 351.00 1200.03 334 954 1.100 10000.000 0.000 1.154
118 354.00 1200.03 283 1029 1.100 10000.000 0.000 1.154
119 357.00 1200.03 305 955 1.100 10000.000 0.000 1.154
120 360.00 1200.03 305 972 1.100 10000.000 0.000 1.154
121 363.00 1200.03 294 979 1.100 10000.000 0.000 1.154
122 366.00 1200.03 319 936 1.100 10000.000 0.000 1.154
123 369.00 1200.03 326 971 1.100 10000.000 0.000 1.154
124 372.00 1200.03 284 1028 1.100 10000.000 0.000 1.154
125 375.00 1200.03 311 957 1.100 10000.000 0.000 1.154
126 378.00 1200.03 294 911 1.100 10000.000 0.000 1.154
127 381.00 1200.03 283 934 1.100 10000.000 0.000 1.154
128 384.00 1200.03 286 914 1.100 10000.000 0.000 1.154
129 387.00 1200.03 256 903 1.100 10000.000 0.000 1.154
130 390.00 1200.03 302 962 1.100 10000.000 0.000 1.154
131 393.00 1200.03 254 897 1.100 10000.000 0.000 1.154
132 396.00 1200.03 288 929 1.100 10000.000 0.000 1.154
133 399.00 1200.03 259 859 1.100 10000.000 0.000 1.154
134 402.00 1200.03 270 912 1.100 10000.000 0.000 1.154
