# BinNR microsec tot-time (s)  O-Beam AUX Ampl(V) f(Hz) phase(deg) chi(pos)
0 0.00 1200.04 118 396 1.100 10000.000 0.000 -1.011
1 3.00 1200.04 241 799 1.100 10000.000 0.000 -1.011
2 6.00 1200.04 258 825 1.100 10000.000 0.000 -1.011
3 9.00 1200.04 220 776 1.100 10000.000 0.000 -1.011
4 12.00 1200.04 267 853 1.100 10000.000 0.000 -1.011
5 15.00 1200.04 248 823 1.100 10000.000 0.000 -1.011
6 18.00 1200.04 227 885 1.100 10000.000 0.000 -1.011
7 21.00 1200.04 227 849 1.100 10000.000 0.000 -1.011
8 24.00 1200.04 278 863 1.100 10000.000 0.000 -1.011
9 27.00 1200.04 249 847 1.100 10000.000 0.000 -1.011
10 30.00 1200.04 290 877 1.100 10000.000 0.000 -1.011
11 33.00 1200.04 282 912 1.100 10000.000 0.000 -1.011
12 36.00 1200.04 269 909 1.100 10000.000 0.000 -1.011
13 39.00 1200.04 285 858 1.100 10000.000 0.000 -1.011
14 42.00 1200.04 251 863 1.100 10000.000 0.000 -1.011
15 45.00 1200.04 277 891 1.100 10000.000 0.000 -1.011
16 48.00 1200.04 269 900 1.100 10000.000 0.000 -1.011
17 51.00 1200.04 282 937 1.100 10000.000 0.000 -1.011
18 54.00 1200.04 280 923 1.100 10000.000 0.000 -1.011
19 57.00 1200.04 277 877 1.100 10000.000 0.000 -1.011
20 60.00 1200.04 274 812 1.100 10000.000 0.000 -1.011
21 63.00 1200.04 248 863 1.100 10000.000 0.000 -1.011
22 66.00 1200.04 255 877 1.100 10000.000 0.000 -1.011
23 69.00 1200.04 221 824 1.100 10000.000 0.000 -1.011
24 72.00 1200.04 231 835 1.100 10000.000 0.000 -1.011
25 75.00 1200.04 210 797 1.100 10000.000 0.000 -1.011
26 78.00 1200.04 224 818 1.100 10000.000 0.000 -1.011
27 81.00 1200.04 209 740 1.100 10000.000 0.000 -1.011
28 84.00 1200.04 231 784 1.100 10000.000 0.000 -1.011
29 87.00 1200.04 242 752 1.100 10000.000 0.000 -1.011
30 90.00 1200.04 212 771 1.100 10000.000 0.000 -1.011
31 93.00 1200.04 267 713 1.100 10000.000 0.000 -1.011
32 96.00 1200.04 246 780 1.100 10000.000 0.000 -1.011
33 99.00 1200.04 242 766 1.100 10000.000 0.000 -1.011
34 102.00 1200.04 222 781 1.100 10000.000 0.000 -1.011
35 105.00 1200.04 250 811 1.100 10000.000 0.000 -1.011
36 108.00 1200.04 256 824 1.100 10000.000 0.000 -1.011
37 111.00 1200.04 257 800 1.100 10000.000 0.000 -1.011
38 114.00 1200.04 264 852 1.100 10000.000 0.000 -1.011
39 117.00 1200.04 258 848 1.100 10000.000 0.000 -1.011
40 120.00 1200.04 260 785 1.100 10000.000 0.000 -1.011
41 123.00 1200.04 235 881 1.100 10000.000 0.000 -1.011
42 126.00 1200.04 245 916 1.100 10000.000 0.000 -1.011
43 129.00 1200.04 299 940 1.100 10000.000 0.000 -1.011
44 132.00 1200.04 285 876 1.100 10000.000 0.000 -1.011
45 135.00 1200.04 261 862 1.100 10000.000 0.000 -1.011
46 138.00 1200.04 279 909 1.100 10000.000 0.000 -1.011
47 141.00 1200.04 242 864 1.100 10000.000 0.000 -1.011
48 144.00 1200.04 288 939 1.100 10000.000 0.000 -1.011
49 147.00 1200.04 266 928 1.100 10000.000 0.000 -1.011
50 150.00 1200.04 265 916 1.100 10000.000 0.000 -1.011
51 153.00 1200.04 261 914 1.100 10000.000 0.000 -1.011
52 156.00 1200.04 272 859 1.100 10000.000 0.000 -1.011
53 159.00 1200.04 261 837 1.100 10000.000 0.000 -1.011
54 162.00 1200.04 256 920 1.100 10000.000 0.000 -1.011
55 165.00 1200.04 250 854 1.100 10000.000 0.000 -1.011
56 168.00 1200.04 259 845 1.100 10000.000 0.000 -1.011
57 171.00 1200.04 213 735 1.100 10000.000 0.000 -1.011
58 174.00 1200.04 244 835 1.100 10000.000 0.000 -1.011
59 177.00 1200.04 233 755 1.100 10000.000 0.000 -1.011
60 180.00 1200.04 221 854 1.100 10000.000 0.000 -1.011
61 183.00 1200.04 222 815 1.100 10000.000 0.000 -1.011
62 186.00 1200.04 246 783 1.100 10000.000 0.000 -1.011
63 189.00 1200.04 215 781 1.100 10000.000 0.000 -1.011
64 192.00 1200.04 261 787 1.100 10000.000 0.000 -1.011
65 195.00 1200.04 224 771 1.100 10000.000 0.000 -1.011
66 198.00 1200.04 232 798 1.100 10000.000 0.000 -1.011
67 201.00 1200.04 224 795 1.100 10000.000 0.000 -1.011
68 204.00 1200.04 224 783 1.100 10000.000 0.000 -1.011
69 207.00 1200.04 226 784 1.100 10000.000 0.000 -1.011
70 210.00 1200.04 210 831 1.100 10000.000 0.000 -1.011
71 213.00 1200.04 268 807 1.100 10000.000 0.000 -1.011
72 216.00 1200.04 257 925 1.100 10000.000 0.000 -1.011
73 219.00 1200.04 257 867 1.100 10000.000 0.000 -1.011
74 222.00 1200.04 256 926 1.100 10000.000 0.000 -1.011
75 225.00 1200.04 251 858 1.100 10000.000 0.000 -1.011
76 228.00 1200.04 295 872 1.100 10000.000 0.000 -1.011
77 231.00 1200.04 264 922 1.100 10000.000 0.000 -1.011
78 234.00 1200.04 288 902 1.100 10000.000 0.000 -1.011
79 237.00 1200.04 271 888 1.100 10000.000 0.000 -1.011
80 240.00 1200.04 274 948 1.100 10000.000 0.000 -1.011
81 243.00 1200.04 290 910 1.100 10000.000 0.000 -1.011
82 246.00 1200.04 298 925 1.100 10000.000 0.000 -1.011
83 249.00 1200.04 253 851 1.100 10000.000 0.000 -1.011
84 252.00 1200.04 287 909 1.100 10000.000 0.000 -1.011
85 255.00 1200.04 277 887 1.100 10000.000 0.000 -1.011
86 258.00 1200.04 252 876 1.100 10000.000 0.000 -1.011
87 261.00 1200.04 264 843 1.100 10000.000 0.000 -1.011
88 264.00 1200.04 258 854 1.100 10000.000 0.000 -1.011
89 267.00 1200.04 262 832 1.100 10000.000 0.000 -1.011
90 270.00 1200.04 237 808 1.100 10000.000 0.000 -1.011
91 273.00 1200.04 244 831 1.100 10000.000 0.000 -1.011
92 276.00 1200.04 257 720 1.100 10000.000 0.000 -1.011
93 279.00 1200.04 255 775 1.100 10000.000 0.000 -1.011
94 282.00 1200.04 250 811 1.100 10000.000 0.000 -1.011
95 285.00 1200.04 240 764 1.100 10000.000 0.000 -1.011
96 288.00 1200.04 232 777 1.100 10000.000 0.000 -1.011
97 291.00 1200.04 194 775 1.100 10000.000 0.000 -1.011
98 294.00 1200.04 235 821 1.100 10000.000 0.000 -1.011
99 297.00 1200.04 236 792 1.100 10000.000 0.000 -1.011
100 300.00 1200.04 245 746 1.100 10000.000 0.000 -1.011
101 303.00 1200.04 226 749 1.100 10000.000 0.000 -1.011
102 306.00 1200.04 266 775 1.100 10000.000 0.000 -1.011
103 309.00 1200.04 253 796 1.100 10000.000 0.000 -1.011
104 312.00 1200.04 247 828 1.100 10000.000 0.000 -1.011
105 315.00 1200.04 222 864 1.100 10000.000 0.000 -1.011
106 318.00 1200.04 280 876 1.100 10000.000 0.000 -1.011
107 321.00 1200.04 240 858 1.100 10000.000 0.000 -1.011
108 324.00 1200.04 274 905 1.100 10000.000 0.000 -1.011
109 327.00 1200.04 242 863 1.100 10000.000 0.000 -1.011
110 330.00 1200.04 283 906 1.100 10000.000 0.000 -1.011
111 333.00 1200.04 264 900 1.100 10000.000 0.000 -1.011
112 336.00 1200.04 308 879 1.100 10000.000 0.000 -1.011
113 339.00 1200.04 268 941 1.100 10000.000 0.000 -1.011
114 342.00 1200.04 272 950 1.100 10000.000 0.000 -1.011
115 345.00 1200.04 247 899 1.100 10000.000 0.000 -1.011
116 348.00 1200.04 304 949 1.100 10000.000 0.000 -1.011
117 351.00 1200.04 236 860 1.100 10000.000 0.000 -1.011
118 354.00 1200.04 261 933 1.100 10000.000 0.000 -1.011
119 357.00 1200.04 262 832 1.100 10000.000 0.000 -1.011
120 360.00 1200.04 256 866 1.100 10000.000 0.000 -1.011
121 363.00 1200.04 257 859 1.100 10000.000 0.000 -1.011
122 366.00 1200.04 241 821 1.100 10000.000 0.000 -1.011
123 369.00 1200.04 235 838 1.100 10000.000 0.000 -1.011
124 372.00 1200.04 234 806 1.100 10000.000 0.000 -1.011
125 375.00 1200.04 233 780 1.100 10000.000 0.000 -1.011
126 378.00 1200.04 235 834 1.100 10000.000 0.000 -1.011
127 381.00 1200.04 256 742 1.100 10000.000 0.000 -1.011
128 384.00 1200.04 207 773 1.100 10000.000 0.000 -1.011
129 387.00 1200.04 248 774 1.100 10000.000 0.000 -1.011
130 390.00 1200.04 251 756 1.100 10000.000 0.000 -1.011
131 393.00 1200.04 229 801 1.100 10000.000 0.000 -1.011
132 396.00 1200.04 257 752 1.100 10000.000 0.000 -1.011
133 399.00 1200.04 225 753 1.100 10000.000 0.000 -1.011
134 402.00 1200.04 234 754 1.100 10000.000 0.000 -1.011
