# BinNR microsec tot-time (s)  O-Beam AUX Ampl(V) f(Hz) phase(deg) chi(pos)
0 0.00 1200.02 156 493 1.100 10000.000 0.000 -0.505
1 3.00 1200.02 374 1000 1.100 10000.000 0.000 -0.505
2 6.00 1200.02 370 1016 1.100 10000.000 0.000 -0.505
3 9.00 1200.02 360 994 1.100 10000.000 0.000 -0.505
4 12.00 1200.02 348 999 1.100 10000.000 0.000 -0.505
5 15.00 1200.02 370 1007 1.100 10000.000 0.000 -0.505
6 18.00 1200.02 371 956 1.100 10000.000 0.000 -0.505
7 21.00 1200.02 387 972 1.100 10000.000 0.000 -0.505
8 24.00 1200.02 368 961 1.100 10000.000 0.000 -0.505
9 27.00 1200.02 326 905 1.100 10000.000 0.000 -0.505
10 30.00 1200.02 356 922 1.100 10000.000 0.000 -0.505
11 33.00 1200.02 329 957 1.100 10000.000 0.000 -0.505
12 36.00 1200.02 374 928 1.100 10000.000 0.000 -0.505
13 39.00 1200.02 386 908 1.100 10000.000 0.000 -0.505
14 42.00 1200.02 384 911 1.100 10000.000 0.000 -0.505
15 45.00 1200.02 320 883 1.100 10000.000 0.000 -0.505
16 48.00 1200.02 347 997 1.100 10000.000 0.000 -0.505
17 51.00 1200.02 330 1029 1.100 10000.000 0.000 -0.505
18 54.00 1200.02 365 975 1.100 10000.000 0.000 -0.505
19 57.00 1200.02 379 934 1.100 10000.000 0.000 -0.505
20 60.00 1200.02 375 951 1.100 10000.000 0.000 -0.505
21 63.00 1200.02 350 949 1.100 10000.000 0.000 -0.505
22 66.00 1200.02 375 962 1.100 10000.000 0.000 -0.505
23 69.00 1200.02 374 988 1.100 10000.000 0.000 -0.505
24 72.00 1200.02 376 1053 1.100 10000.000 0.000 -0.505
25 75.00 1200.02 390 985 1.100 10000.000 0.000 -0.505
26 78.00 1200.02 367 1001 1.100 10000.000 0.000 -0.505
27 81.00 1200.02 329 1012 1.100 10000.000 0.000 -0.505
28 84.00 1200.02 368 1009 1.100 10000.000 0.000 -0.505
29 87.00 1200.02 390 1035 1.100 10000.000 0.000 -0.505
30 90.00 1200.02 345 1028 1.100 10000.000 0.000 -0.505
31 93.00 1200.02 347 993 1.100 10000.000 0.000 -0.505
32 96.00 1200.02 402 1030 1.100 10000.000 0.000 -0.505
33 99.00 1200.02 332 933 1.100 10000.000 0.000 -0.505
34 102.00 1200.02 377 1028 1.100 10000.000 0.000 -0.505
35 105.00 1200.02 394 989 1.100 10000.000 0.000 -0.505
36 108.00 1200.02 386 1028 1.100 10000.000 0.000 -0.505
37 111.00 1200.02 364 945 1.100 10000.000 0.000 -0.505
38 114.00 1200.02 368 1059 1.100 10000.000 0.000 -0.505
39 117.00 1200.02 366 940 1.100 10000.000 0.000 -0.505
40 120.00 1200.02 358 1007 1.100 10000.000 0.000 -0.505
41 123.00 1200.02 369 951 1.100 10000.000 0.000 -0.505
42 126.00 1200.02 358 992 1.100 10000.000 0.000 -0.505
43 129.00 1200.02 351 951 1.100 10000.000 0.000 -0.505
44 132.00 1200.02 357 944 1.100 10000.000 0.000 -0.505
45 135.00 1200.02 371 967 1.100 10000.000 0.000 -0.505
46 138.00 1200.02 368 914 1.100 10000.000 0.000 -0.505
47 141.00 1200.02 387 898 1.100 10000.000 0.000 -0.505
48 144.00 1200.02 355 978 1.100 10000.000 0.000 -0.505
49 147.00 1200.02 370 903 1.100 10000.000 0.000 -0.505
50 150.00 1200.02 356 942 1.100 10000.000 0.000 -0.505
51 153.00 1200.02 359 911 1.100 10000.000 0.000 -0.505
52 156.00 1200.02 366 969 1.100 10000.000 0.000 -0.505
53 159.00 1200.02 372 957 1.100 10000.000 0.000 -0.505
54 162.00 1200.02 355 941 1.100 10000.000 0.000 -0.505
55 165.00 1200.02 380 973 1.100 10000.000 0.000 -0.505
56 168.00 1200.02 386 1002 1.100 10000.000 0.000 -0.505
57 171.00 1200.02 407 936 1.100 10000.000 0.000 -0.505
58 174.00 1200.02 411 1019 1.100 10000.000 0.000 -0.505
59 177.00 1200.02 390 1022 1.100 10000.000 0.000 -0.505
60 180.00 1200.02 382 1035 1.100 10000.000 0.000 -0.505
61 183.00 1200.02 369 1006 1.100 10000.000 0.000 -0.505
62 186.00 1200.02 323 1052 1.100 10000.000 0.000 -0.505
63 189.00 1200.02 352 1058 1.100 10000.000 0.000 -0.505
64 192.00 1200.02 372 975 1.100 10000.000 0.000 -0.505
65 195.00 1200.02 361 1003 1.100 10000.000 0.000 -0.505
66 198.00 1200.02 368 1000 1.100 10000.000 0.000 -0.505
67 201.00 1200.02 352 1038 1.100 10000.000 0.000 -0.505
68 204.00 1200.02 378 1013 1.100 10000.000 0.000 -0.505
69 207.00 1200.02 399 980 1.100 10000.000 0.000 -0.505
70 210.00 1200.02 375 1086 1.100 10000.000 0.000 -0.505
71 213.00 1200.02 385 1009 1.100 10000.000 0.000 -0.505
72 216.00 1200.02 373 990 1.100 10000.000 0.000 -0.505
73 219.00 1200.02 323 954 1.100 10000.000 0.000 -0.505
74 222.00 1200.02 349 1003 1.100 10000.000 0.000 -0.505
75 225.00 1200.02 348 984 1.100 10000.000 0.000 -0.505
76 228.00 1200.02 362 923 1.100 10000.000 0.000 -0.505
77 231.00 1200.02 343 937 1.100 10000.000 0.000 -0.505
78 234.00 1200.02 360 883 1.100 10000.000 0.000 -0.505
79 237.00 1200.02 358 947 1.100 10000.000 0.000 -0.505
80 240.00 1200.02 341 974 1.100 10000.000 0.000 -0.505
81 243.00 1200.02 369 941 1.100 10000.000 0.000 -0.505
82 246.00 1200.02 373 919 1.100 10000.000 0.000 -0.505
83 249.00 1200.02 350 946 1.100 10000.000 0.000 -0.505
84 252.00 1200.02 372 902 1.100 10000.000 0.000 -0.505
85 255.00 1200.02 380 907 1.100 10000.000 0.000 -0.505
86 258.00 1200.02 357 1012 1.100 10000.000 0.000 -0.505
87 261.00 1200.02 341 943 1.100 10000.000 0.000 -0.505
88 264.00 1200.02 339 1000 1.100 10000.000 0.000 -0.505
89 267.00 1200.02 374 939 1.100 10000.000 0.000 -0.505
90 270.00 1200.02 386 1016 1.100 10000.000 0.000 -0.505
91 273.00 1200.02 372 1005 1.100 10000.000 0.000 -0.505
92 276.00 1200.02 366 1044 1.100 10000.000 0.000 -0.505
93 279.00 1200.02 363 1091 1.100 10000.000 0.000 -0.505
94 282.00 1200.02 371 990 1.100 10000.000 0.000 -0.505
95 285.00 1200.02 377 969 1.100 10000.000 0.000 -0.505
96 288.00 1200.02 368 1039 1.100 10000.000 0.000 -0.505
97 291.00 1200.02 383 1041 1.100 10000.000 0.000 -0.505
98 294.00 1200.02 381 1058 1.100 10000.000 0.000 -0.505
99 297.00 1200.02 345 1020 1.100 10000.000 0.000 -0.505
100 300.00 1200.02 335 1020 1.100 10000.000 0.000 -0.505
101 303.00 1200.02 350 1004 1.100 10000.000 0.000 -0.505
102 306.00 1200.02 360 1028 1.100 10000.000 0.000 -0.505
103 309.00 1200.02 354 976 1.100 10000.000 0.000 -0.505
104 312.00 1200.02 403 1020 1.100 10000.000 0.000 -0.505
105 315.00 1200.02 375 1011 1.100 10000.000 0.000 -0.505
106 318.00 1200.02 371 979 1.100 10000.000 0.000 -0.505
107 321.00 1200.02 358 981 1.100 10000.000 0.000 -0.505
108 324.00 1200.02 327 936 1.100 10000.000 0.000 -0.505
109 327.00 1200.02 340 966 1.100 10000.000 0.000 -0.505
110 330.00 1200.02 355 944 1.100 10000.000 0.000 -0.505
111 333.00 1200.02 344 944 1.100 10000.000 0.000 -0.505
112 336.00 1200.02 381 949 1.100 10000.000 0.000 -0.505
113 339.00 1200.02 361 943 1.100 10000.000 0.000 -0.505
114 342.00 1200.02 371 948 1.100 10000.000 0.000 -0.505
115 345.00 1200.02 364 892 1.100 10000.000 0.000 -0.505
116 348.00 1200.02 302 898 1.100 10000.000 0.000 -0.505
117 351.00 1200.02 388 917 1.100 10000.000 0.000 -0.505
118 354.00 1200.02 352 961 1.100 10000.000 0.000 -0.505
119 357.00 1200.02 371 948 1.100 10000.000 0.000 -0.505
120 360.00 1200.02 373 977 1.100 10000.000 0.000 -0.505
121 363.00 1200.02 347 956 1.100 10000.000 0.000 -0.505
122 366.00 1200.02 414 976 1.100 10000.000 0.000 -0.505
123 369.00 1200.02 357 988 1.100 10000.000 0.000 -0.505
124 372.00 1200.02 375 994 1.100 10000.000 0.000 -0.505
125 375.00 1200.02 385 1073 1.100 10000.000 0.000 -0.505
126 378.00 1200.02 383 1031 1.100 10000.000 0.000 -0.505
127 381.00 1200.02 375 1037 1.100 10000.000 0.000 -0.505
128 384.00 1200.02 364 1013 1.100 10000.000 0.000 -0.505
129 387.00 1200.02 408 990 1.100 10000.000 0.000 -0.505
130 390.00 1200.02 386 1026 1.100 10000.000 0.000 -0.505
131 393.00 1200.02 357 993 1.100 10000.000 0.000 -0.505
132 396.00 1200.02 370 1008 1.100 10000.000 0.000 -0.505
133 399.00 1200.02 330 1036 1.100 10000.000 0.000 -0.505
134 402.00 1200.02 366 1010 1.100 10000.000 0.000 -0.505
