# BinNR microsec tot-time (s)  O-Beam AUX Ampl(V) f(Hz) phase(deg) chi(pos)
0 0.00 1500.02 32 71 0.370 10000.000 0.000 0.505
1 3.00 1500.02 79 162 0.370 10000.000 0.000 0.505
2 6.00 1500.02 106 140 0.370 10000.000 0.000 0.505
3 9.00 1500.02 129 141 0.370 10000.000 0.000 0.505
4 12.00 1500.02 102 151 0.370 10000.000 0.000 0.505
5 15.00 1500.02 121 157 0.370 10000.000 0.000 0.505
6 18.00 1500.02 102 157 0.370 10000.000 0.000 0.505
7 21.00 1500.02 106 135 0.370 10000.000 0.000 0.505
8 24.00 1500.02 108 128 0.370 10000.000 0.000 0.505
9 27.00 1500.02 123 120 0.370 10000.000 0.000 0.505
10 30.00 1500.02 116 148 0.370 10000.000 0.000 0.505
11 33.00 1500.02 114 148 0.370 10000.000 0.000 0.505
12 36.00 1500.02 143 119 0.370 10000.000 0.000 0.505
13 39.00 1500.02 87 132 0.370 10000.000 0.000 0.505
14 42.00 1500.02 109 131 0.370 10000.000 0.000 0.505
15 45.00 1500.02 133 136 0.370 10000.000 0.000 0.505
16 48.00 1500.02 118 139 0.370 10000.000 0.000 0.505
17 51.00 1500.02 105 126 0.370 10000.000 0.000 0.505
18 54.00 1500.02 120 141 0.370 10000.000 0.000 0.505
19 57.00 1500.02 106 140 0.370 10000.000 0.000 0.505
20 60.00 1500.02 107 147 0.370 10000.000 0.000 0.505
21 63.00 1500.02 111 137 0.370 10000.000 0.000 0.505
22 66.00 1500.02 105 164 0.370 10000.000 0.000 0.505
23 69.00 1500.02 91 140 0.370 10000.000 0.000 0.505
24 72.00 1500.02 102 120 0.370 10000.000 0.000 0.505
25 75.00 1500.02 96 124 0.370 10000.000 0.000 0.505
26 78.00 1500.02 96 132 0.370 10000.000 0.000 0.505
27 81.00 1500.02 90 107 0.370 10000.000 0.000 0.505
28 84.00 1500.02 102 134 0.370 10000.000 0.000 0.505
29 87.00 1500.02 97 124 0.370 10000.000 0.000 0.505
30 90.00 1500.02 98 139 0.370 10000.000 0.000 0.505
31 93.00 1500.02 88 138 0.370 10000.000 0.000 0.505
32 96.00 1500.02 91 157 0.370 10000.000 0.000 0.505
33 99.00 1500.02 100 130 0.370 10000.000 0.000 0.505
34 102.00 1500.02 111 139 0.370 10000.000 0.000 0.505
35 105.00 1500.02 103 151 0.370 10000.000 0.000 0.505
36 108.00 1500.02 102 130 0.370 10000.000 0.000 0.505
37 111.00 1500.02 93 121 0.370 10000.000 0.000 0.505
38 114.00 1500.02 96 131 0.370 10000.000 0.000 0.505
39 117.00 1500.02 102 138 0.370 10000.000 0.000 0.505
40 120.00 1500.02 131 131 0.370 10000.000 0.000 0.505
41 123.00 1500.02 114 107 0.370 10000.000 0.000 0.505
42 126.00 1500.02 112 136 0.370 10000.000 0.000 0.505
43 129.00 1500.02 116 145 0.370 10000.000 0.000 0.505
44 132.00 1500.02 124 145 0.370 10000.000 0.000 0.505
45 135.00 1500.02 108 129 0.370 10000.000 0.000 0.505
46 138.00 1500.02 98 146 0.370 10000.000 0.000 0.505
47 141.00 1500.02 140 154 0.370 10000.000 0.000 0.505
48 144.00 1500.02 115 135 0.370 10000.000 0.000 0.505
49 147.00 1500.02 100 144 0.370 10000.000 0.000 0.505
50 150.00 1500.02 118 144 0.370 10000.000 0.000 0.505
51 153.00 1500.02 112 148 0.370 10000.000 0.000 0.505
52 156.00 1500.02 122 158 0.370 10000.000 0.000 0.505
53 159.00 1500.02 93 170 0.370 10000.000 0.000 0.505
54 162.00 1500.02 89 139 0.370 10000.000 0.000 0.505
55 165.00 1500.02 96 135 0.370 10000.000 0.000 0.505
56 168.00 1500.02 101 137 0.370 10000.000 0.000 0.505
57 171.00 1500.02 87 122 0.370 10000.000 0.000 0.505
58 174.00 1500.02 88 148 0.370 10000.000 0.000 0.505
59 177.00 1500.02 93 127 0.370 10000.000 0.000 0.505
60 180.00 1500.02 99 141 0.370 10000.000 0.000 0.505
61 183.00 1500.02 105 135 0.370 10000.000 0.000 0.505
62 186.00 1500.02 95 138 0.370 10000.000 0.000 0.505
63 189.00 1500.02 86 135 0.370 10000.000 0.000 0.505
64 192.00 1500.02 94 152 0.370 10000.000 0.000 0.505
65 195.00 1500.02 91 115 0.370 10000.000 0.000 0.505
66 198.00 1500.02 87 145 0.370 10000.000 0.000 0.505
67 201.00 1500.02 97 162 0.370 10000.000 0.000 0.505
68 204.00 1500.02 96 141 0.370 10000.000 0.000 0.505
69 207.00 1500.02 90 135 0.370 10000.000 0.000 0.505
70 210.00 1500.02 105 139 0.370 10000.000 0.000 0.505
71 213.00 1500.02 110 129 0.370 10000.000 0.000 0.505
72 216.00 1500.02 109 143 0.370 10000.000 0.000 0.505
73 219.00 1500.02 127 127 0.370 10000.000 0.000 0.505
74 222.00 1500.02 108 123 0.370 10000.000 0.000 0.505
75 225.00 1500.02 114 120 0.370 10000.000 0.000 0.505
76 228.00 1500.02 134 129 0.370 10000.000 0.000 0.505
77 231.00 1500.02 123 147 0.370 10000.000 0.000 0.505
78 234.00 1500.02 131 146 0.370 10000.000 0.000 0.505
79 237.00 1500.02 113 148 0.370 10000.000 0.000 0.505
80 240.00 1500.02 117 150 0.370 10000.000 0.000 0.505
81 243.00 1500.02 110 165 0.370 10000.000 0.000 0.505
82 246.00 1500.02 104 133 0.370 10000.000 0.000 0.505
83 249.00 1500.02 103 164 0.370 10000.000 0.000 0.505
84 252.00 1500.02 131 139 0.370 10000.000 0.000 0.505
85 255.00 1500.02 124 167 0.370 10000.000 0.000 0.505
86 258.00 1500.02 101 129 0.370 10000.000 0.000 0.505
87 261.00 1500.02 99 141 0.370 10000.000 0.000 0.505
88 264.00 1500.02 111 132 0.370 10000.000 0.000 0.505
89 267.00 1500.02 103 138 0.370 10000.000 0.000 0.505
90 270.00 1500.02 96 120 0.370 10000.000 0.000 0.505
91 273.00 1500.02 89 156 0.370 10000.000 0.000 0.505
92 276.00 1500.02 103 129 0.370 10000.000 0.000 0.505
93 279.00 1500.02 90 111 0.370 10000.000 0.000 0.505
94 282.00 1500.02 112 127 0.370 10000.000 0.000 0.505
95 285.00 1500.02 95 124 0.370 10000.000 0.000 0.505
96 288.00 1500.02 102 134 0.370 10000.000 0.000 0.505
97 291.00 1500.02 107 147 0.370 10000.000 0.000 0.505
98 294.00 1500.02 122 136 0.370 10000.000 0.000 0.505
99 297.00 1500.02 109 115 0.370 10000.000 0.000 0.505
100 300.00 1500.02 104 122 0.370 10000.000 0.000 0.505
101 303.00 1500.02 108 137 0.370 10000.000 0.000 0.505
102 306.00 1500.02 100 123 0.370 10000.000 0.000 0.505
103 309.00 1500.02 99 127 0.370 10000.000 0.000 0.505
104 312.00 1500.02 105 124 0.370 10000.000 0.000 0.505
105 315.00 1500.02 127 115 0.370 10000.000 0.000 0.505
106 318.00 1500.02 116 134 0.370 10000.000 0.000 0.505
107 321.00 1500.02 103 162 0.370 10000.000 0.000 0.505
108 324.00 1500.02 90 141 0.370 10000.000 0.000 0.505
109 327.00 1500.02 105 136 0.370 10000.000 0.000 0.505
110 330.00 1500.02 102 130 0.370 10000.000 0.000 0.505
111 333.00 1500.02 94 163 0.370 10000.000 0.000 0.505
112 336.00 1500.02 108 144 0.370 10000.000 0.000 0.505
113 339.00 1500.02 100 127 0.370 10000.000 0.000 0.505
114 342.00 1500.02 87 140 0.370 10000.000 0.000 0.505
115 345.00 1500.02 110 136 0.370 10000.000 0.000 0.505
116 348.00 1500.02 109 168 0.370 10000.000 0.000 0.505
117 351.00 1500.02 86 153 0.370 10000.000 0.000 0.505
118 354.00 1500.02 126 157 0.370 10000.000 0.000 0.505
119 357.00 1500.02 124 147 0.370 10000.000 0.000 0.505
120 360.00 1500.02 111 151 0.370 10000.000 0.000 0.505
121 363.00 1500.02 107 129 0.370 10000.000 0.000 0.505
122 366.00 1500.02 145 136 0.370 10000.000 0.000 0.505
123 369.00 1500.02 99 130 0.370 10000.000 0.000 0.505
124 372.00 1500.02 112 130 0.370 10000.000 0.000 0.505
125 375.00 1500.02 112 129 0.370 10000.000 0.000 0.505
126 378.00 1500.02 128 139 0.370 10000.000 0.000 0.505
127 381.00 1500.02 127 143 0.370 10000.000 0.000 0.505
128 384.00 1500.02 107 124 0.370 10000.000 0.000 0.505
129 387.00 1500.02 95 140 0.370 10000.000 0.000 0.505
130 390.00 1500.02 114 139 0.370 10000.000 0.000 0.505
131 393.00 1500.02 110 132 0.370 10000.000 0.000 0.505
132 396.00 1500.02 108 114 0.370 10000.000 0.000 0.505
133 399.00 1500.02 96 136 0.370 10000.000 0.000 0.505
134 402.00 1500.02 112 160 0.370 10000.000 0.000 0.505
135 405.00 1500.02 95 126 0.370 10000.000 0.000 0.505
136 408.00 1500.02 85 153 0.370 10000.000 0.000 0.505
137 411.00 1500.02 88 126 0.370 10000.000 0.000 0.505
138 414.00 1500.02 118 129 0.370 10000.000 0.000 0.505
139 417.00 1500.02 101 143 0.370 10000.000 0.000 0.505
140 420.00 1500.02 109 164 0.370 10000.000 0.000 0.505
141 423.00 1500.02 124 127 0.370 10000.000 0.000 0.505
142 426.00 1500.02 105 144 0.370 10000.000 0.000 0.505
143 429.00 1500.02 86 135 0.370 10000.000 0.000 0.505
144 432.00 1500.02 118 153 0.370 10000.000 0.000 0.505
