# BinNR microsec tot-time (s)  O-Beam AUX Ampl(V) f(Hz) phase(deg) chi(pos)
0 0.00 1500.00 134 446 0.370 10000.000 0.000 -1.011
1 3.00 1500.00 278 967 0.370 10000.000 0.000 -1.011
2 6.00 1500.00 292 1000 0.370 10000.000 0.000 -1.011
3 9.00 1500.00 272 957 0.370 10000.000 0.000 -1.011
4 12.00 1500.00 277 956 0.370 10000.000 0.000 -1.011
5 15.00 1500.00 225 924 0.370 10000.000 0.000 -1.011
6 18.00 1500.00 263 923 0.370 10000.000 0.000 -1.011
7 21.00 1500.00 250 941 0.370 10000.000 0.000 -1.011
8 24.00 1500.00 253 948 0.370 10000.000 0.000 -1.011
9 27.00 1500.00 237 908 0.370 10000.000 0.000 -1.011
10 30.00 1500.00 242 911 0.370 10000.000 0.000 -1.011
11 33.00 1500.00 259 865 0.370 10000.000 0.000 -1.011
12 36.00 1500.00 225 920 0.370 10000.000 0.000 -1.011
13 39.00 1500.00 244 886 0.370 10000.000 0.000 -1.011
14 42.00 1500.00 227 936 0.370 10000.000 0.000 -1.011
15 45.00 1500.00 253 910 0.370 10000.000 0.000 -1.011
16 48.00 1500.00 263 932 0.370 10000.000 0.000 -1.011
17 51.00 1500.00 240 877 0.370 10000.000 0.000 -1.011
18 54.00 1500.00 250 927 0.370 10000.000 0.000 -1.011
19 57.00 1500.00 285 940 0.370 10000.000 0.000 -1.011
20 60.00 1500.00 246 893 0.370 10000.000 0.000 -1.011
21 63.00 1500.00 278 932 0.370 10000.000 0.000 -1.011
22 66.00 1500.00 268 877 0.370 10000.000 0.000 -1.011
23 69.00 1500.00 272 874 0.370 10000.000 0.000 -1.011
24 72.00 1500.00 252 924 0.370 10000.000 0.000 -1.011
25 75.00 1500.00 288 850 0.370 10000.000 0.000 -1.011
26 78.00 1500.00 276 899 0.370 10000.000 0.000 -1.011
27 81.00 1500.00 289 799 0.370 10000.000 0.000 -1.011
28 84.00 1500.00 311 844 0.370 10000.000 0.000 -1.011
29 87.00 1500.00 306 814 0.370 10000.000 0.000 -1.011
30 90.00 1500.00 266 808 0.370 10000.000 0.000 -1.011
31 93.00 1500.00 277 769 0.370 10000.000 0.000 -1.011
32 96.00 1500.00 263 808 0.370 10000.000 0.000 -1.011
33 99.00 1500.00 271 791 0.370 10000.000 0.000 -1.011
34 102.00 1500.00 270 819 0.370 10000.000 0.000 -1.011
35 105.00 1500.00 283 784 0.370 10000.000 0.000 -1.011
36 108.00 1500.00 280 781 0.370 10000.000 0.000 -1.011
37 111.00 1500.00 235 855 0.370 10000.000 0.000 -1.011
38 114.00 1500.00 265 906 0.370 10000.000 0.000 -1.011
39 117.00 1500.00 264 878 0.370 10000.000 0.000 -1.011
40 120.00 1500.00 240 907 0.370 10000.000 0.000 -1.011
41 123.00 1500.00 246 873 0.370 10000.000 0.000 -1.011
42 126.00 1500.00 258 900 0.370 10000.000 0.000 -1.011
43 129.00 1500.00 237 916 0.370 10000.000 0.000 -1.011
44 132.00 1500.00 258 943 0.370 10000.000 0.000 -1.011
45 135.00 1500.00 239 953 0.370 10000.000 0.000 -1.011
46 138.00 1500.00 241 944 0.370 10000.000 0.000 -1.011
47 141.00 1500.00 242 983 0.370 10000.000 0.000 -1.011
48 144.00 1500.00 261 929 0.370 10000.000 0.000 -1.011
49 147.00 1500.00 244 921 0.370 10000.000 0.000 -1.011
50 150.00 1500.00 266 984 0.370 10000.000 0.000 -1.011
51 153.00 1500.00 276 920 0.370 10000.000 0.000 -1.011
52 156.00 1500.00 256 1001 0.370 10000.000 0.000 -1.011
53 159.00 1500.00 260 957 0.370 10000.000 0.000 -1.011
54 162.00 1500.00 259 959 0.370 10000.000 0.000 -1.011
55 165.00 1500.00 280 924 0.370 10000.000 0.000 -1.011
56 168.00 1500.00 275 853 0.370 10000.000 0.000 -1.011
57 171.00 1500.00 293 877 0.370 10000.000 0.000 -1.011
58 174.00 1500.00 294 892 0.370 10000.000 0.000 -1.011
59 177.00 1500.00 276 826 0.370 10000.000 0.000 -1.011
60 180.00 1500.00 275 833 0.370 10000.000 0.000 -1.011
61 183.00 1500.00 277 829 0.370 10000.000 0.000 -1.011
62 186.00 1500.00 293 815 0.370 10000.000 0.000 -1.011
63 189.00 1500.00 300 807 0.370 10000.000 0.000 -1.011
64 192.00 1500.00 292 781 0.370 10000.000 0.000 -1.011
65 195.00 1500.00 249 807 0.370 10000.000 0.000 -1.011
66 198.00 1500.00 300 797 0.370 10000.000 0.000 -1.011
67 201.00 1500.00 277 819 0.370 10000.000 0.000 -1.011
68 204.00 1500.00 285 773 0.370 10000.000 0.000 -1.011
69 207.00 1500.00 244 748 0.370 10000.000 0.000 -1.011
70 210.00 1500.00 224 855 0.370 10000.000 0.000 -1.011
71 213.00 1500.00 225 808 0.370 10000.000 0.000 -1.011
72 216.00 1500.00 269 857 0.370 10000.000 0.000 -1.011
73 219.00 1500.00 230 849 0.370 10000.000 0.000 -1.011
74 222.00 1500.00 248 892 0.370 10000.000 0.000 -1.011
75 225.00 1500.00 254 884 0.370 10000.000 0.000 -1.011
76 228.00 1500.00 277 923 0.370 10000.000 0.000 -1.011
77 231.00 1500.00 225 900 0.370 10000.000 0.000 -1.011
78 234.00 1500.00 259 923 0.370 10000.000 0.000 -1.011
79 237.00 1500.00 219 881 0.370 10000.000 0.000 -1.011
80 240.00 1500.00 261 936 0.370 10000.000 0.000 -1.011
81 243.00 1500.00 259 931 0.370 10000.000 0.000 -1.011
82 246.00 1500.00 248 947 0.370 10000.000 0.000 -1.011
83 249.00 1500.00 218 962 0.370 10000.000 0.000 -1.011
84 252.00 1500.00 267 953 0.370 10000.000 0.000 -1.011
85 255.00 1500.00 259 1006 0.370 10000.000 0.000 -1.011
86 258.00 1500.00 248 912 0.370 10000.000 0.000 -1.011
87 261.00 1500.00 247 904 0.370 10000.000 0.000 -1.011
88 264.00 1500.00 273 968 0.370 10000.000 0.000 -1.011
89 267.00 1500.00 251 896 0.370 10000.000 0.000 -1.011
90 270.00 1500.00 308 877 0.370 10000.000 0.000 -1.011
91 273.00 1500.00 252 861 0.370 10000.000 0.000 -1.011
92 276.00 1500.00 304 865 0.370 10000.000 0.000 -1.011
93 279.00 1500.00 281 865 0.370 10000.000 0.000 -1.011
94 282.00 1500.00 270 847 0.370 10000.000 0.000 -1.011
95 285.00 1500.00 299 844 0.370 10000.000 0.000 -1.011
96 288.00 1500.00 255 815 0.370 10000.000 0.000 -1.011
97 291.00 1500.00 267 811 0.370 10000.000 0.000 -1.011
98 294.00 1500.00 291 792 0.370 10000.000 0.000 -1.011
99 297.00 1500.00 262 799 0.370 10000.000 0.000 -1.011
100 300.00 1500.00 297 812 0.370 10000.000 0.000 -1.011
101 303.00 1500.00 254 836 0.370 10000.000 0.000 -1.011
102 306.00 1500.00 271 799 0.370 10000.000 0.000 -1.011
103 309.00 1500.00 271 813 0.370 10000.000 0.000 -1.011
104 312.00 1500.00 263 903 0.370 10000.000 0.000 -1.011
105 315.00 1500.00 270 827 0.370 10000.000 0.000 -1.011
106 318.00 1500.00 285 838 0.370 10000.000 0.000 -1.011
107 321.00 1500.00 261 892 0.370 10000.000 0.000 -1.011
108 324.00 1500.00 294 913 0.370 10000.000 0.000 -1.011
109 327.00 1500.00 283 863 0.370 10000.000 0.000 -1.011
110 330.00 1500.00 305 911 0.370 10000.000 0.000 -1.011
111 333.00 1500.00 273 929 0.370 10000.000 0.000 -1.011
112 336.00 1500.00 273 942 0.370 10000.000 0.000 -1.011
113 339.00 1500.00 270 928 0.370 10000.000 0.000 -1.011
114 342.00 1500.00 273 952 0.370 10000.000 0.000 -1.011
115 345.00 1500.00 275 929 0.370 10000.000 0.000 -1.011
116 348.00 1500.00 322 927 0.370 10000.000 0.000 -1.011
117 351.00 1500.00 247 945 0.370 10000.000 0.000 -1.011
118 354.00 1500.00 259 931 0.370 10000.000 0.000 -1.011
119 357.00 1500.00 250 958 0.370 10000.000 0.000 -1.011
120 360.00 1500.00 245 919 0.370 10000.000 0.000 -1.011
121 363.00 1500.00 228 874 0.370 10000.000 0.000 -1.011
122 366.00 1500.00 217 921 0.370 10000.000 0.000 -1.011
123 369.00 1500.00 231 879 0.370 10000.000 0.000 -1.011
124 372.00 1500.00 247 862 0.370 10000.000 0.000 -1.011
125 375.00 1500.00 264 820 0.370 10000.000 0.000 -1.011
126 378.00 1500.00 241 822 0.370 10000.000 0.000 -1.011
127 381.00 1500.00 268 824 0.370 10000.000 0.000 -1.011
128 384.00 1500.00 227 807 0.370 10000.000 0.000 -1.011
129 387.00 1500.00 243 779 0.370 10000.000 0.000 -1.011
130 390.00 1500.00 266 781 0.370 10000.000 0.000 -1.011
131 393.00 1500.00 241 805 0.370 10000.000 0.000 -1.011
132 396.00 1500.00 279 756 0.370 10000.000 0.000 -1.011
133 399.00 1500.00 286 769 0.370 10000.000 0.000 -1.011
134 402.00 1500.00 254 765 0.370 10000.000 0.000 -1.011
135 405.00 1500.00 261 814 0.370 10000.000 0.000 -1.011
136 408.00 1500.00 299 844 0.370 10000.000 0.000 -1.011
137 411.00 1500.00 274 858 0.370 10000.000 0.000 -1.011
138 414.00 1500.00 279 845 0.370 10000.000 0.000 -1.011
139 417.00 1500.00 286 877 0.370 10000.000 0.000 -1.011
140 420.00 1500.00 321 847 0.370 10000.000 0.000 -1.011
141 423.00 1500.00 285 895 0.370 10000.000 0.000 -1.011
142 426.00 1500.00 295 880 0.370 10000.000 0.000 -1.011
143 429.00 1500.00 280 921 0.370 10000.000 0.000 -1.011
144 432.00 1500.00 261 920 0.370 10000.000 0.000 -1.011
