# BinNR microsec tot-time (s)  O-Beam AUX Ampl(V) f(Hz) phase(deg) chi(pos)
0 0.00 1500.03 160 512 0.370 10000.000 0.000 1.154
1 3.00 1500.03 314 1035 0.370 10000.000 0.000 1.154
2 6.00 1500.03 320 1002 0.370 10000.000 0.000 1.154
3 9.00 1500.03 285 1010 0.370 10000.000 0.000 1.154
4 12.00 1500.03 277 1011 0.370 10000.000 0.000 1.154
5 15.00 1500.03 269 971 0.370 10000.000 0.000 1.154
6 18.00 1500.03 274 970 0.370 10000.000 0.000 1.154
7 21.00 1500.03 248 982 0.370 10000.000 0.000 1.154
8 24.00 1500.03 316 967 0.370 10000.000 0.000 1.154
9 27.00 1500.03 273 915 0.370 10000.000 0.000 1.154
10 30.00 1500.03 274 990 0.370 10000.000 0.000 1.154
11 33.00 1500.03 263 956 0.370 10000.000 0.000 1.154
12 36.00 1500.03 257 1005 0.370 10000.000 0.000 1.154
13 39.00 1500.03 251 987 0.370 10000.000 0.000 1.154
14 42.00 1500.03 281 970 0.370 10000.000 0.000 1.154
15 45.00 1500.03 247 978 0.370 10000.000 0.000 1.154
16 48.00 1500.03 264 998 0.370 10000.000 0.000 1.154
17 51.00 1500.03 265 1021 0.370 10000.000 0.000 1.154
18 54.00 1500.03 284 1055 0.370 10000.000 0.000 1.154
19 57.00 1500.03 254 1012 0.370 10000.000 0.000 1.154
20 60.00 1500.03 282 1036 0.370 10000.000 0.000 1.154
21 63.00 1500.03 319 948 0.370 10000.000 0.000 1.154
22 66.00 1500.03 286 1010 0.370 10000.000 0.000 1.154
23 69.00 1500.03 298 991 0.370 10000.000 0.000 1.154
24 72.00 1500.03 315 987 0.370 10000.000 0.000 1.154
25 75.00 1500.03 308 980 0.370 10000.000 0.000 1.154
26 78.00 1500.03 317 995 0.370 10000.000 0.000 1.154
27 81.00 1500.03 324 936 0.370 10000.000 0.000 1.154
28 84.00 1500.03 313 942 0.370 10000.000 0.000 1.154
29 87.00 1500.03 297 907 0.370 10000.000 0.000 1.154
30 90.00 1500.03 309 913 0.370 10000.000 0.000 1.154
31 93.00 1500.03 275 889 0.370 10000.000 0.000 1.154
32 96.00 1500.03 332 925 0.370 10000.000 0.000 1.154
33 99.00 1500.03 316 859 0.370 10000.000 0.000 1.154
34 102.00 1500.03 327 958 0.370 10000.000 0.000 1.154
35 105.00 1500.03 313 868 0.370 10000.000 0.000 1.154
36 108.00 1500.03 309 921 0.370 10000.000 0.000 1.154
37 111.00 1500.03 287 923 0.370 10000.000 0.000 1.154
38 114.00 1500.03 308 909 0.370 10000.000 0.000 1.154
39 117.00 1500.03 275 951 0.370 10000.000 0.000 1.154
40 120.00 1500.03 274 1028 0.370 10000.000 0.000 1.154
41 123.00 1500.03 269 1009 0.370 10000.000 0.000 1.154
42 126.00 1500.03 293 964 0.370 10000.000 0.000 1.154
43 129.00 1500.03 260 975 0.370 10000.000 0.000 1.154
44 132.00 1500.03 239 1059 0.370 10000.000 0.000 1.154
45 135.00 1500.03 270 998 0.370 10000.000 0.000 1.154
46 138.00 1500.03 259 1022 0.370 10000.000 0.000 1.154
47 141.00 1500.03 263 1044 0.370 10000.000 0.000 1.154
48 144.00 1500.03 279 1065 0.370 10000.000 0.000 1.154
49 147.00 1500.03 280 1106 0.370 10000.000 0.000 1.154
50 150.00 1500.03 276 1088 0.370 10000.000 0.000 1.154
51 153.00 1500.03 299 1055 0.370 10000.000 0.000 1.154
52 156.00 1500.03 293 1067 0.370 10000.000 0.000 1.154
53 159.00 1500.03 280 1097 0.370 10000.000 0.000 1.154
54 162.00 1500.03 332 1020 0.370 10000.000 0.000 1.154
55 165.00 1500.03 275 980 0.370 10000.000 0.000 1.154
56 168.00 1500.03 296 1049 0.370 10000.000 0.000 1.154
57 171.00 1500.03 304 943 0.370 10000.000 0.000 1.154
58 174.00 1500.03 308 996 0.370 10000.000 0.000 1.154
59 177.00 1500.03 282 970 0.370 10000.000 0.000 1.154
60 180.00 1500.03 314 973 0.370 10000.000 0.000 1.154
61 183.00 1500.03 335 915 0.370 10000.000 0.000 1.154
62 186.00 1500.03 352 917 0.370 10000.000 0.000 1.154
63 189.00 1500.03 335 925 0.370 10000.000 0.000 1.154
64 192.00 1500.03 328 880 0.370 10000.000 0.000 1.154
65 195.00 1500.03 306 937 0.370 10000.000 0.000 1.154
66 198.00 1500.03 302 914 0.370 10000.000 0.000 1.154
67 201.00 1500.03 307 863 0.370 10000.000 0.000 1.154
68 204.00 1500.03 282 955 0.370 10000.000 0.000 1.154
69 207.00 1500.03 285 927 0.370 10000.000 0.000 1.154
70 210.00 1500.03 319 960 0.370 10000.000 0.000 1.154
71 213.00 1500.03 275 881 0.370 10000.000 0.000 1.154
72 216.00 1500.03 314 1008 0.370 10000.000 0.000 1.154
73 219.00 1500.03 253 944 0.370 10000.000 0.000 1.154
74 222.00 1500.03 287 1009 0.370 10000.000 0.000 1.154
75 225.00 1500.03 279 957 0.370 10000.000 0.000 1.154
76 228.00 1500.03 305 1081 0.370 10000.000 0.000 1.154
77 231.00 1500.03 265 1057 0.370 10000.000 0.000 1.154
78 234.00 1500.03 267 980 0.370 10000.000 0.000 1.154
79 237.00 1500.03 274 999 0.370 10000.000 0.000 1.154
80 240.00 1500.03 265 1034 0.370 10000.000 0.000 1.154
81 243.00 1500.03 254 1065 0.370 10000.000 0.000 1.154
82 246.00 1500.03 289 1100 0.370 10000.000 0.000 1.154
83 249.00 1500.03 259 1050 0.370 10000.000 0.000 1.154
84 252.00 1500.03 278 1074 0.370 10000.000 0.000 1.154
85 255.00 1500.03 268 1020 0.370 10000.000 0.000 1.154
86 258.00 1500.03 292 1042 0.370 10000.000 0.000 1.154
87 261.00 1500.03 300 1118 0.370 10000.000 0.000 1.154
88 264.00 1500.03 313 975 0.370 10000.000 0.000 1.154
89 267.00 1500.03 303 1061 0.370 10000.000 0.000 1.154
90 270.00 1500.03 309 970 0.370 10000.000 0.000 1.154
91 273.00 1500.03 282 1010 0.370 10000.000 0.000 1.154
92 276.00 1500.03 335 998 0.370 10000.000 0.000 1.154
93 279.00 1500.03 284 905 0.370 10000.000 0.000 1.154
94 282.00 1500.03 309 945 0.370 10000.000 0.000 1.154
95 285.00 1500.03 308 896 0.370 10000.000 0.000 1.154
96 288.00 1500.03 323 871 0.370 10000.000 0.000 1.154
97 291.00 1500.03 311 921 0.370 10000.000 0.000 1.154
98 294.00 1500.03 287 927 0.370 10000.000 0.000 1.154
99 297.00 1500.03 319 889 0.370 10000.000 0.000 1.154
100 300.00 1500.03 272 910 0.370 10000.000 0.000 1.154
101 303.00 1500.03 307 877 0.370 10000.000 0.000 1.154
102 306.00 1500.03 309 978 0.370 10000.000 0.000 1.154
103 309.00 1500.03 349 944 0.370 10000.000 0.000 1.154
104 312.00 1500.03 283 931 0.370 10000.000 0.000 1.154
105 315.00 1500.03 310 936 0.370 10000.000 0.000 1.154
106 318.00 1500.03 313 978 0.370 10000.000 0.000 1.154
107 321.00 1500.03 296 902 0.370 10000.000 0.000 1.154
108 324.00 1500.03 301 985 0.370 10000.000 0.000 1.154
109 327.00 1500.03 301 948 0.370 10000.000 0.000 1.154
110 330.00 1500.03 287 976 0.370 10000.000 0.000 1.154
111 333.00 1500.03 296 1029 0.370 10000.000 0.000 1.154
112 336.00 1500.03 296 1065 0.370 10000.000 0.000 1.154
113 339.00 1500.03 307 1050 0.370 10000.000 0.000 1.154
114 342.00 1500.03 295 1062 0.370 10000.000 0.000 1.154
115 345.00 1500.03 281 1072 0.370 10000.000 0.000 1.154
116 348.00 1500.03 293 1116 0.370 10000.000 0.000 1.154
117 351.00 1500.03 285 984 0.370 10000.000 0.000 1.154
118 354.00 1500.03 262 1069 0.370 10000.000 0.000 1.154
119 357.00 1500.03 262 1076 0.370 10000.000 0.000 1.154
120 360.00 1500.03 237 1033 0.370 10000.000 0.000 1.154
121 363.00 1500.03 260 958 0.370 10000.000 0.000 1.154
122 366.00 1500.03 259 1076 0.370 10000.000 0.000 1.154
123 369.00 1500.03 328 946 0.370 10000.000 0.000 1.154
124 372.00 1500.03 262 1008 0.370 10000.000 0.000 1.154
125 375.00 1500.03 284 971 0.370 10000.000 0.000 1.154
126 378.00 1500.03 272 903 0.370 10000.000 0.000 1.154
127 381.00 1500.03 249 961 0.370 10000.000 0.000 1.154
128 384.00 1500.03 299 897 0.370 10000.000 0.000 1.154
129 387.00 1500.03 268 894 0.370 10000.000 0.000 1.154
130 390.00 1500.03 318 889 0.370 10000.000 0.000 1.154
131 393.00 1500.03 278 889 0.370 10000.000 0.000 1.154
132 396.00 1500.03 275 904 0.370 10000.000 0.000 1.154
133 399.00 1500.03 284 925 0.370 10000.000 0.000 1.154
134 402.00 1500.03 321 946 0.370 10000.000 0.000 1.154
135 405.00 1500.03 308 971 0.370 10000.000 0.000 1.154
136 408.00 1500.03 338 896 0.370 10000.000 0.000 1.154
137 411.00 1500.03 287 976 0.370 10000.000 0.000 1.154
138 414.00 1500.03 342 941 0.370 10000.000 0.000 1.154
139 417.00 1500.03 302 980 0.370 10000.000 0.000 1.154
140 420.00 1500.03 369 983 0.370 10000.000 0.000 1.154
141 423.00 1500.03 340 921 0.370 10000.000 0.000 1.154
142 426.00 1500.03 319 963 0.370 10000.000 0.000 1.154
143 429.00 1500.03 304 949 0.370 10000.000 0.000 1.154
144 432.00 1500.03 325 1003 0.370 10000.000 0.000 1.154
