# BinNR microsec tot-time (s)  O-Beam AUX Ampl(V) f(Hz) phase(deg) chi(pos)
0 0.00 1500.06 205 565 0.370 10000.000 0.000 -0.846
1 3.00 1500.06 328 1149 0.370 10000.000 0.000 -0.846
2 6.00 1500.06 362 1160 0.370 10000.000 0.000 -0.846
3 9.00 1500.06 344 1111 0.370 10000.000 0.000 -0.846
4 12.00 1500.06 369 1202 0.370 10000.000 0.000 -0.846
5 15.00 1500.06 357 1121 0.370 10000.000 0.000 -0.846
6 18.00 1500.06 368 1203 0.370 10000.000 0.000 -0.846
7 21.00 1500.06 334 1133 0.370 10000.000 0.000 -0.846
8 24.00 1500.06 334 1112 0.370 10000.000 0.000 -0.846
9 27.00 1500.06 332 1084 0.370 10000.000 0.000 -0.846
10 30.00 1500.06 320 1061 0.370 10000.000 0.000 -0.846
11 33.00 1500.06 302 1098 0.370 10000.000 0.000 -0.846
12 36.00 1500.06 363 1113 0.370 10000.000 0.000 -0.846
13 39.00 1500.06 313 1099 0.370 10000.000 0.000 -0.846
14 42.00 1500.06 334 1176 0.370 10000.000 0.000 -0.846
15 45.00 1500.06 322 1080 0.370 10000.000 0.000 -0.846
16 48.00 1500.06 297 1116 0.370 10000.000 0.000 -0.846
17 51.00 1500.06 309 1102 0.370 10000.000 0.000 -0.846
18 54.00 1500.06 328 1082 0.370 10000.000 0.000 -0.846
19 57.00 1500.06 362 1121 0.370 10000.000 0.000 -0.846
20 60.00 1500.06 344 1111 0.370 10000.000 0.000 -0.846
21 63.00 1500.06 374 1141 0.370 10000.000 0.000 -0.846
22 66.00 1500.06 382 1148 0.370 10000.000 0.000 -0.846
23 69.00 1500.06 306 1105 0.370 10000.000 0.000 -0.846
24 72.00 1500.06 335 1164 0.370 10000.000 0.000 -0.846
25 75.00 1500.06 377 1104 0.370 10000.000 0.000 -0.846
26 78.00 1500.06 374 1112 0.370 10000.000 0.000 -0.846
27 81.00 1500.06 352 1097 0.370 10000.000 0.000 -0.846
28 84.00 1500.06 375 1036 0.370 10000.000 0.000 -0.846
29 87.00 1500.06 344 992 0.370 10000.000 0.000 -0.846
30 90.00 1500.06 410 1053 0.370 10000.000 0.000 -0.846
31 93.00 1500.06 356 1015 0.370 10000.000 0.000 -0.846
32 96.00 1500.06 343 1038 0.370 10000.000 0.000 -0.846
33 99.00 1500.06 365 1062 0.370 10000.000 0.000 -0.846
34 102.00 1500.06 356 1050 0.370 10000.000 0.000 -0.846
35 105.00 1500.06 357 968 0.370 10000.000 0.000 -0.846
36 108.00 1500.06 362 1108 0.370 10000.000 0.000 -0.846
37 111.00 1500.06 321 1043 0.370 10000.000 0.000 -0.846
38 114.00 1500.06 332 1082 0.370 10000.000 0.000 -0.846
39 117.00 1500.06 335 1039 0.370 10000.000 0.000 -0.846
40 120.00 1500.06 331 1078 0.370 10000.000 0.000 -0.846
41 123.00 1500.06 352 1077 0.370 10000.000 0.000 -0.846
42 126.00 1500.06 343 1178 0.370 10000.000 0.000 -0.846
43 129.00 1500.06 324 1136 0.370 10000.000 0.000 -0.846
44 132.00 1500.06 317 1159 0.370 10000.000 0.000 -0.846
45 135.00 1500.06 327 1136 0.370 10000.000 0.000 -0.846
46 138.00 1500.06 361 1214 0.370 10000.000 0.000 -0.846
47 141.00 1500.06 323 1135 0.370 10000.000 0.000 -0.846
48 144.00 1500.06 331 1247 0.370 10000.000 0.000 -0.846
49 147.00 1500.06 353 1123 0.370 10000.000 0.000 -0.846
50 150.00 1500.06 308 1224 0.370 10000.000 0.000 -0.846
51 153.00 1500.06 338 1145 0.370 10000.000 0.000 -0.846
52 156.00 1500.06 358 1149 0.370 10000.000 0.000 -0.846
53 159.00 1500.06 369 1117 0.370 10000.000 0.000 -0.846
54 162.00 1500.06 351 1145 0.370 10000.000 0.000 -0.846
55 165.00 1500.06 303 1110 0.370 10000.000 0.000 -0.846
56 168.00 1500.06 356 1156 0.370 10000.000 0.000 -0.846
57 171.00 1500.06 312 1084 0.370 10000.000 0.000 -0.846
58 174.00 1500.06 362 1128 0.370 10000.000 0.000 -0.846
59 177.00 1500.06 385 1114 0.370 10000.000 0.000 -0.846
60 180.00 1500.06 381 1061 0.370 10000.000 0.000 -0.846
61 183.00 1500.06 352 1075 0.370 10000.000 0.000 -0.846
62 186.00 1500.06 354 1053 0.370 10000.000 0.000 -0.846
63 189.00 1500.06 329 1090 0.370 10000.000 0.000 -0.846
64 192.00 1500.06 363 1092 0.370 10000.000 0.000 -0.846
65 195.00 1500.06 363 1019 0.370 10000.000 0.000 -0.846
66 198.00 1500.06 354 1014 0.370 10000.000 0.000 -0.846
67 201.00 1500.06 341 1068 0.370 10000.000 0.000 -0.846
68 204.00 1500.06 373 1054 0.370 10000.000 0.000 -0.846
69 207.00 1500.06 337 1093 0.370 10000.000 0.000 -0.846
70 210.00 1500.06 354 1075 0.370 10000.000 0.000 -0.846
71 213.00 1500.06 315 1078 0.370 10000.000 0.000 -0.846
72 216.00 1500.06 331 1092 0.370 10000.000 0.000 -0.846
73 219.00 1500.06 309 1125 0.370 10000.000 0.000 -0.846
74 222.00 1500.06 314 1050 0.370 10000.000 0.000 -0.846
75 225.00 1500.06 302 1139 0.370 10000.000 0.000 -0.846
76 228.00 1500.06 304 1096 0.370 10000.000 0.000 -0.846
77 231.00 1500.06 273 1110 0.370 10000.000 0.000 -0.846
78 234.00 1500.06 314 1040 0.370 10000.000 0.000 -0.846
79 237.00 1500.06 273 1168 0.370 10000.000 0.000 -0.846
80 240.00 1500.06 332 1138 0.370 10000.000 0.000 -0.846
81 243.00 1500.06 331 1134 0.370 10000.000 0.000 -0.846
82 246.00 1500.06 313 1162 0.370 10000.000 0.000 -0.846
83 249.00 1500.06 307 1185 0.370 10000.000 0.000 -0.846
84 252.00 1500.06 353 1240 0.370 10000.000 0.000 -0.846
85 255.00 1500.06 364 1210 0.370 10000.000 0.000 -0.846
86 258.00 1500.06 331 1165 0.370 10000.000 0.000 -0.846
87 261.00 1500.06 362 1157 0.370 10000.000 0.000 -0.846
88 264.00 1500.06 336 1128 0.370 10000.000 0.000 -0.846
89 267.00 1500.06 366 1173 0.370 10000.000 0.000 -0.846
90 270.00 1500.06 353 1174 0.370 10000.000 0.000 -0.846
91 273.00 1500.06 345 1182 0.370 10000.000 0.000 -0.846
92 276.00 1500.06 373 1086 0.370 10000.000 0.000 -0.846
93 279.00 1500.06 355 1051 0.370 10000.000 0.000 -0.846
94 282.00 1500.06 372 1061 0.370 10000.000 0.000 -0.846
95 285.00 1500.06 334 1126 0.370 10000.000 0.000 -0.846
96 288.00 1500.06 359 1056 0.370 10000.000 0.000 -0.846
97 291.00 1500.06 349 988 0.370 10000.000 0.000 -0.846
98 294.00 1500.06 372 1070 0.370 10000.000 0.000 -0.846
99 297.00 1500.06 351 1008 0.370 10000.000 0.000 -0.846
100 300.00 1500.06 353 1014 0.370 10000.000 0.000 -0.846
101 303.00 1500.06 350 1053 0.370 10000.000 0.000 -0.846
102 306.00 1500.06 331 1076 0.370 10000.000 0.000 -0.846
103 309.00 1500.06 330 1030 0.370 10000.000 0.000 -0.846
104 312.00 1500.06 323 1125 0.370 10000.000 0.000 -0.846
105 315.00 1500.06 379 1062 0.370 10000.000 0.000 -0.846
106 318.00 1500.06 356 1132 0.370 10000.000 0.000 -0.846
107 321.00 1500.06 338 1022 0.370 10000.000 0.000 -0.846
108 324.00 1500.06 349 1161 0.370 10000.000 0.000 -0.846
109 327.00 1500.06 338 1100 0.370 10000.000 0.000 -0.846
110 330.00 1500.06 368 1133 0.370 10000.000 0.000 -0.846
111 333.00 1500.06 346 1154 0.370 10000.000 0.000 -0.846
112 336.00 1500.06 348 1162 0.370 10000.000 0.000 -0.846
113 339.00 1500.06 344 1197 0.370 10000.000 0.000 -0.846
114 342.00 1500.06 365 1174 0.370 10000.000 0.000 -0.846
115 345.00 1500.06 344 1158 0.370 10000.000 0.000 -0.846
116 348.00 1500.06 341 1193 0.370 10000.000 0.000 -0.846
117 351.00 1500.06 349 1149 0.370 10000.000 0.000 -0.846
118 354.00 1500.06 319 1163 0.370 10000.000 0.000 -0.846
119 357.00 1500.06 322 1213 0.370 10000.000 0.000 -0.846
120 360.00 1500.06 304 1238 0.370 10000.000 0.000 -0.846
121 363.00 1500.06 321 1194 0.370 10000.000 0.000 -0.846
122 366.00 1500.06 320 1076 0.370 10000.000 0.000 -0.846
123 369.00 1500.06 286 1084 0.370 10000.000 0.000 -0.846
124 372.00 1500.06 305 1091 0.370 10000.000 0.000 -0.846
125 375.00 1500.06 323 1152 0.370 10000.000 0.000 -0.846
126 378.00 1500.06 339 1137 0.370 10000.000 0.000 -0.846
127 381.00 1500.06 329 1089 0.370 10000.000 0.000 -0.846
128 384.00 1500.06 343 1087 0.370 10000.000 0.000 -0.846
129 387.00 1500.06 326 1022 0.370 10000.000 0.000 -0.846
130 390.00 1500.06 324 1093 0.370 10000.000 0.000 -0.846
131 393.00 1500.06 337 1027 0.370 10000.000 0.000 -0.846
132 396.00 1500.06 322 1055 0.370 10000.000 0.000 -0.846
133 399.00 1500.06 352 1052 0.370 10000.000 0.000 -0.846
134 402.00 1500.06 380 1054 0.370 10000.000 0.000 -0.846
135 405.00 1500.06 349 1023 0.370 10000.000 0.000 -0.846
136 408.00 1500.06 359 1067 0.370 10000.000 0.000 -0.846
137 411.00 1500.06 366 1087 0.370 10000.000 0.000 -0.846
138 414.00 1500.06 347 1174 0.370 10000.000 0.000 -0.846
139 417.00 1500.06 354 1052 0.370 10000.000 0.000 -0.846
140 420.00 1500.06 376 1047 0.370 10000.000 0.000 -0.846
141 423.00 1500.06 357 1088 0.370 10000.000 0.000 -0.846
142 426.00 1500.06 380 1089 0.370 10000.000 0.000 -0.846
143 429.00 1500.06 356 1084 0.370 10000.000 0.000 -0.846
144 432.00 1500.06 397 1139 0.370 10000.000 0.000 -0.846
