# BinNR microsec tot-time (s)  O-Beam AUX Ampl(V) f(Hz) phase(deg) chi(pos)
0 0.00 1500.04 203 636 0.370 10000.000 0.000 1.505
1 3.00 1500.04 449 1286 0.370 10000.000 0.000 1.505
2 6.00 1500.04 427 1267 0.370 10000.000 0.000 1.505
3 9.00 1500.04 416 1239 0.370 10000.000 0.000 1.505
4 12.00 1500.04 440 1234 0.370 10000.000 0.000 1.505
5 15.00 1500.04 453 1253 0.370 10000.000 0.000 1.505
6 18.00 1500.04 424 1219 0.370 10000.000 0.000 1.505
7 21.00 1500.04 444 1201 0.370 10000.000 0.000 1.505
8 24.00 1500.04 422 1268 0.370 10000.000 0.000 1.505
9 27.00 1500.04 441 1228 0.370 10000.000 0.000 1.505
10 30.00 1500.04 426 1223 0.370 10000.000 0.000 1.505
11 33.00 1500.04 397 1275 0.370 10000.000 0.000 1.505
12 36.00 1500.04 415 1292 0.370 10000.000 0.000 1.505
13 39.00 1500.04 368 1175 0.370 10000.000 0.000 1.505
14 42.00 1500.04 427 1296 0.370 10000.000 0.000 1.505
15 45.00 1500.04 398 1272 0.370 10000.000 0.000 1.505
16 48.00 1500.04 411 1212 0.370 10000.000 0.000 1.505
17 51.00 1500.04 423 1170 0.370 10000.000 0.000 1.505
18 54.00 1500.04 423 1268 0.370 10000.000 0.000 1.505
19 57.00 1500.04 422 1205 0.370 10000.000 0.000 1.505
20 60.00 1500.04 416 1275 0.370 10000.000 0.000 1.505
21 63.00 1500.04 476 1213 0.370 10000.000 0.000 1.505
22 66.00 1500.04 408 1282 0.370 10000.000 0.000 1.505
23 69.00 1500.04 418 1280 0.370 10000.000 0.000 1.505
24 72.00 1500.04 429 1231 0.370 10000.000 0.000 1.505
25 75.00 1500.04 408 1258 0.370 10000.000 0.000 1.505
26 78.00 1500.04 400 1267 0.370 10000.000 0.000 1.505
27 81.00 1500.04 400 1259 0.370 10000.000 0.000 1.505
28 84.00 1500.04 420 1248 0.370 10000.000 0.000 1.505
29 87.00 1500.04 390 1222 0.370 10000.000 0.000 1.505
30 90.00 1500.04 427 1279 0.370 10000.000 0.000 1.505
31 93.00 1500.04 397 1248 0.370 10000.000 0.000 1.505
32 96.00 1500.04 426 1274 0.370 10000.000 0.000 1.505
33 99.00 1500.04 444 1233 0.370 10000.000 0.000 1.505
34 102.00 1500.04 481 1206 0.370 10000.000 0.000 1.505
35 105.00 1500.04 453 1218 0.370 10000.000 0.000 1.505
36 108.00 1500.04 424 1307 0.370 10000.000 0.000 1.505
37 111.00 1500.04 416 1257 0.370 10000.000 0.000 1.505
38 114.00 1500.04 476 1216 0.370 10000.000 0.000 1.505
39 117.00 1500.04 414 1265 0.370 10000.000 0.000 1.505
40 120.00 1500.04 401 1306 0.370 10000.000 0.000 1.505
41 123.00 1500.04 426 1222 0.370 10000.000 0.000 1.505
42 126.00 1500.04 435 1268 0.370 10000.000 0.000 1.505
43 129.00 1500.04 419 1226 0.370 10000.000 0.000 1.505
44 132.00 1500.04 382 1239 0.370 10000.000 0.000 1.505
45 135.00 1500.04 410 1252 0.370 10000.000 0.000 1.505
46 138.00 1500.04 429 1190 0.370 10000.000 0.000 1.505
47 141.00 1500.04 399 1270 0.370 10000.000 0.000 1.505
48 144.00 1500.04 428 1336 0.370 10000.000 0.000 1.505
49 147.00 1500.04 419 1288 0.370 10000.000 0.000 1.505
50 150.00 1500.04 415 1263 0.370 10000.000 0.000 1.505
51 153.00 1500.04 431 1277 0.370 10000.000 0.000 1.505
52 156.00 1500.04 410 1263 0.370 10000.000 0.000 1.505
53 159.00 1500.04 421 1263 0.370 10000.000 0.000 1.505
54 162.00 1500.04 429 1206 0.370 10000.000 0.000 1.505
55 165.00 1500.04 400 1304 0.370 10000.000 0.000 1.505
56 168.00 1500.04 447 1202 0.370 10000.000 0.000 1.505
57 171.00 1500.04 428 1178 0.370 10000.000 0.000 1.505
58 174.00 1500.04 448 1285 0.370 10000.000 0.000 1.505
59 177.00 1500.04 431 1309 0.370 10000.000 0.000 1.505
60 180.00 1500.04 441 1221 0.370 10000.000 0.000 1.505
61 183.00 1500.04 434 1233 0.370 10000.000 0.000 1.505
62 186.00 1500.04 415 1250 0.370 10000.000 0.000 1.505
63 189.00 1500.04 418 1178 0.370 10000.000 0.000 1.505
64 192.00 1500.04 384 1214 0.370 10000.000 0.000 1.505
65 195.00 1500.04 417 1227 0.370 10000.000 0.000 1.505
66 198.00 1500.04 415 1274 0.370 10000.000 0.000 1.505
67 201.00 1500.04 429 1244 0.370 10000.000 0.000 1.505
68 204.00 1500.04 428 1235 0.370 10000.000 0.000 1.505
69 207.00 1500.04 430 1248 0.370 10000.000 0.000 1.505
70 210.00 1500.04 408 1208 0.370 10000.000 0.000 1.505
71 213.00 1500.04 410 1277 0.370 10000.000 0.000 1.505
72 216.00 1500.04 405 1316 0.370 10000.000 0.000 1.505
73 219.00 1500.04 400 1221 0.370 10000.000 0.000 1.505
74 222.00 1500.04 409 1217 0.370 10000.000 0.000 1.505
75 225.00 1500.04 402 1237 0.370 10000.000 0.000 1.505
76 228.00 1500.04 431 1293 0.370 10000.000 0.000 1.505
77 231.00 1500.04 399 1212 0.370 10000.000 0.000 1.505
78 234.00 1500.04 405 1275 0.370 10000.000 0.000 1.505
79 237.00 1500.04 411 1228 0.370 10000.000 0.000 1.505
80 240.00 1500.04 402 1268 0.370 10000.000 0.000 1.505
81 243.00 1500.04 403 1260 0.370 10000.000 0.000 1.505
82 246.00 1500.04 418 1306 0.370 10000.000 0.000 1.505
83 249.00 1500.04 424 1200 0.370 10000.000 0.000 1.505
84 252.00 1500.04 433 1220 0.370 10000.000 0.000 1.505
85 255.00 1500.04 420 1170 0.370 10000.000 0.000 1.505
86 258.00 1500.04 402 1238 0.370 10000.000 0.000 1.505
87 261.00 1500.04 446 1177 0.370 10000.000 0.000 1.505
88 264.00 1500.04 422 1242 0.370 10000.000 0.000 1.505
89 267.00 1500.04 389 1224 0.370 10000.000 0.000 1.505
90 270.00 1500.04 412 1205 0.370 10000.000 0.000 1.505
91 273.00 1500.04 421 1254 0.370 10000.000 0.000 1.505
92 276.00 1500.04 422 1291 0.370 10000.000 0.000 1.505
93 279.00 1500.04 458 1253 0.370 10000.000 0.000 1.505
94 282.00 1500.04 434 1268 0.370 10000.000 0.000 1.505
95 285.00 1500.04 408 1268 0.370 10000.000 0.000 1.505
96 288.00 1500.04 465 1257 0.370 10000.000 0.000 1.505
97 291.00 1500.04 413 1252 0.370 10000.000 0.000 1.505
98 294.00 1500.04 408 1266 0.370 10000.000 0.000 1.505
99 297.00 1500.04 439 1222 0.370 10000.000 0.000 1.505
100 300.00 1500.04 441 1194 0.370 10000.000 0.000 1.505
101 303.00 1500.04 415 1259 0.370 10000.000 0.000 1.505
102 306.00 1500.04 461 1242 0.370 10000.000 0.000 1.505
103 309.00 1500.04 442 1273 0.370 10000.000 0.000 1.505
104 312.00 1500.04 411 1240 0.370 10000.000 0.000 1.505
105 315.00 1500.04 441 1277 0.370 10000.000 0.000 1.505
106 318.00 1500.04 438 1218 0.370 10000.000 0.000 1.505
107 321.00 1500.04 415 1277 0.370 10000.000 0.000 1.505
108 324.00 1500.04 415 1273 0.370 10000.000 0.000 1.505
109 327.00 1500.04 430 1205 0.370 10000.000 0.000 1.505
110 330.00 1500.04 429 1276 0.370 10000.000 0.000 1.505
111 333.00 1500.04 434 1186 0.370 10000.000 0.000 1.505
112 336.00 1500.04 450 1198 0.370 10000.000 0.000 1.505
113 339.00 1500.04 425 1237 0.370 10000.000 0.000 1.505
114 342.00 1500.04 420 1254 0.370 10000.000 0.000 1.505
115 345.00 1500.04 427 1201 0.370 10000.000 0.000 1.505
116 348.00 1500.04 410 1273 0.370 10000.000 0.000 1.505
117 351.00 1500.04 427 1251 0.370 10000.000 0.000 1.505
118 354.00 1500.04 419 1273 0.370 10000.000 0.000 1.505
119 357.00 1500.04 414 1233 0.370 10000.000 0.000 1.505
120 360.00 1500.04 415 1211 0.370 10000.000 0.000 1.505
121 363.00 1500.04 401 1240 0.370 10000.000 0.000 1.505
122 366.00 1500.04 401 1246 0.370 10000.000 0.000 1.505
123 369.00 1500.04 375 1208 0.370 10000.000 0.000 1.505
124 372.00 1500.04 409 1375 0.370 10000.000 0.000 1.505
125 375.00 1500.04 423 1220 0.370 10000.000 0.000 1.505
126 378.00 1500.04 419 1218 0.370 10000.000 0.000 1.505
127 381.00 1500.04 397 1197 0.370 10000.000 0.000 1.505
128 384.00 1500.04 427 1360 0.370 10000.000 0.000 1.505
129 387.00 1500.04 419 1232 0.370 10000.000 0.000 1.505
130 390.00 1500.04 468 1226 0.370 10000.000 0.000 1.505
131 393.00 1500.04 354 1165 0.370 10000.000 0.000 1.505
132 396.00 1500.04 425 1246 0.370 10000.000 0.000 1.505
133 399.00 1500.04 418 1185 0.370 10000.000 0.000 1.505
134 402.00 1500.04 393 1252 0.370 10000.000 0.000 1.505
135 405.00 1500.04 423 1202 0.370 10000.000 0.000 1.505
136 408.00 1500.04 451 1247 0.370 10000.000 0.000 1.505
137 411.00 1500.04 383 1209 0.370 10000.000 0.000 1.505
138 414.00 1500.04 425 1310 0.370 10000.000 0.000 1.505
139 417.00 1500.04 433 1249 0.370 10000.000 0.000 1.505
140 420.00 1500.04 457 1260 0.370 10000.000 0.000 1.505
141 423.00 1500.04 435 1256 0.370 10000.000 0.000 1.505
142 426.00 1500.04 411 1236 0.370 10000.000 0.000 1.505
143 429.00 1500.04 402 1251 0.370 10000.000 0.000 1.505
144 432.00 1500.04 427 1255 0.370 10000.000 0.000 1.505
