# BinNR microsec tot-time (s)  O-Beam AUX Ampl(V) f(Hz) phase(deg) chi(pos)
0 0.00 1500.01 68 80 0.370 10000.000 0.000 0.330
1 3.00 1500.01 149 179 0.370 10000.000 0.000 0.330
2 6.00 1500.01 158 170 0.370 10000.000 0.000 0.330
3 9.00 1500.01 152 187 0.370 10000.000 0.000 0.330
4 12.00 1500.01 143 200 0.370 10000.000 0.000 0.330
5 15.00 1500.01 153 185 0.370 10000.000 0.000 0.330
6 18.00 1500.01 141 168 0.370 10000.000 0.000 0.330
7 21.00 1500.01 172 194 0.370 10000.000 0.000 0.330
8 24.00 1500.01 162 198 0.370 10000.000 0.000 0.330
9 27.00 1500.01 158 217 0.370 10000.000 0.000 0.330
10 30.00 1500.01 176 186 0.370 10000.000 0.000 0.330
11 33.00 1500.01 165 190 0.370 10000.000 0.000 0.330
12 36.00 1500.01 172 197 0.370 10000.000 0.000 0.330
13 39.00 1500.01 173 197 0.370 10000.000 0.000 0.330
14 42.00 1500.01 148 180 0.370 10000.000 0.000 0.330
15 45.00 1500.01 186 196 0.370 10000.000 0.000 0.330
16 48.00 1500.01 171 169 0.370 10000.000 0.000 0.330
17 51.00 1500.01 155 152 0.370 10000.000 0.000 0.330
18 54.00 1500.01 159 175 0.370 10000.000 0.000 0.330
19 57.00 1500.01 180 151 0.370 10000.000 0.000 0.330
20 60.00 1500.01 157 168 0.370 10000.000 0.000 0.330
21 63.00 1500.01 142 186 0.370 10000.000 0.000 0.330
22 66.00 1500.01 148 169 0.370 10000.000 0.000 0.330
23 69.00 1500.01 137 184 0.370 10000.000 0.000 0.330
24 72.00 1500.01 162 164 0.370 10000.000 0.000 0.330
25 75.00 1500.01 125 190 0.370 10000.000 0.000 0.330
26 78.00 1500.01 148 206 0.370 10000.000 0.000 0.330
27 81.00 1500.01 139 213 0.370 10000.000 0.000 0.330
28 84.00 1500.01 136 219 0.370 10000.000 0.000 0.330
29 87.00 1500.01 140 206 0.370 10000.000 0.000 0.330
30 90.00 1500.01 134 260 0.370 10000.000 0.000 0.330
31 93.00 1500.01 139 221 0.370 10000.000 0.000 0.330
32 96.00 1500.01 148 214 0.370 10000.000 0.000 0.330
33 99.00 1500.01 153 239 0.370 10000.000 0.000 0.330
34 102.00 1500.01 133 227 0.370 10000.000 0.000 0.330
35 105.00 1500.01 133 233 0.370 10000.000 0.000 0.330
36 108.00 1500.01 149 266 0.370 10000.000 0.000 0.330
37 111.00 1500.01 140 206 0.370 10000.000 0.000 0.330
38 114.00 1500.01 168 198 0.370 10000.000 0.000 0.330
39 117.00 1500.01 146 211 0.370 10000.000 0.000 0.330
40 120.00 1500.01 156 203 0.370 10000.000 0.000 0.330
41 123.00 1500.01 160 182 0.370 10000.000 0.000 0.330
42 126.00 1500.01 191 161 0.370 10000.000 0.000 0.330
43 129.00 1500.01 160 159 0.370 10000.000 0.000 0.330
44 132.00 1500.01 170 148 0.370 10000.000 0.000 0.330
45 135.00 1500.01 169 155 0.370 10000.000 0.000 0.330
46 138.00 1500.01 169 158 0.370 10000.000 0.000 0.330
47 141.00 1500.01 171 173 0.370 10000.000 0.000 0.330
48 144.00 1500.01 166 168 0.370 10000.000 0.000 0.330
49 147.00 1500.01 191 150 0.370 10000.000 0.000 0.330
50 150.00 1500.01 170 154 0.370 10000.000 0.000 0.330
51 153.00 1500.01 169 152 0.370 10000.000 0.000 0.330
52 156.00 1500.01 146 148 0.370 10000.000 0.000 0.330
53 159.00 1500.01 129 187 0.370 10000.000 0.000 0.330
54 162.00 1500.01 155 198 0.370 10000.000 0.000 0.330
55 165.00 1500.01 132 180 0.370 10000.000 0.000 0.330
56 168.00 1500.01 149 174 0.370 10000.000 0.000 0.330
57 171.00 1500.01 130 186 0.370 10000.000 0.000 0.330
58 174.00 1500.01 124 187 0.370 10000.000 0.000 0.330
59 177.00 1500.01 133 210 0.370 10000.000 0.000 0.330
60 180.00 1500.01 135 224 0.370 10000.000 0.000 0.330
61 183.00 1500.01 148 210 0.370 10000.000 0.000 0.330
62 186.00 1500.01 120 202 0.370 10000.000 0.000 0.330
63 189.00 1500.01 127 223 0.370 10000.000 0.000 0.330
64 192.00 1500.01 151 226 0.370 10000.000 0.000 0.330
65 195.00 1500.01 126 204 0.370 10000.000 0.000 0.330
66 198.00 1500.01 127 262 0.370 10000.000 0.000 0.330
67 201.00 1500.01 138 232 0.370 10000.000 0.000 0.330
68 204.00 1500.01 151 217 0.370 10000.000 0.000 0.330
69 207.00 1500.01 155 227 0.370 10000.000 0.000 0.330
70 210.00 1500.01 148 219 0.370 10000.000 0.000 0.330
71 213.00 1500.01 152 222 0.370 10000.000 0.000 0.330
72 216.00 1500.01 188 195 0.370 10000.000 0.000 0.330
73 219.00 1500.01 156 177 0.370 10000.000 0.000 0.330
74 222.00 1500.01 172 195 0.370 10000.000 0.000 0.330
75 225.00 1500.01 158 197 0.370 10000.000 0.000 0.330
76 228.00 1500.01 180 163 0.370 10000.000 0.000 0.330
77 231.00 1500.01 160 203 0.370 10000.000 0.000 0.330
78 234.00 1500.01 169 164 0.370 10000.000 0.000 0.330
79 237.00 1500.01 165 140 0.370 10000.000 0.000 0.330
80 240.00 1500.01 160 154 0.370 10000.000 0.000 0.330
81 243.00 1500.01 180 139 0.370 10000.000 0.000 0.330
82 246.00 1500.01 177 186 0.370 10000.000 0.000 0.330
83 249.00 1500.01 174 149 0.370 10000.000 0.000 0.330
84 252.00 1500.01 170 185 0.370 10000.000 0.000 0.330
85 255.00 1500.01 171 162 0.370 10000.000 0.000 0.330
86 258.00 1500.01 158 135 0.370 10000.000 0.000 0.330
87 261.00 1500.01 149 179 0.370 10000.000 0.000 0.330
88 264.00 1500.01 140 184 0.370 10000.000 0.000 0.330
89 267.00 1500.01 131 183 0.370 10000.000 0.000 0.330
90 270.00 1500.01 141 193 0.370 10000.000 0.000 0.330
91 273.00 1500.01 145 173 0.370 10000.000 0.000 0.330
92 276.00 1500.01 151 185 0.370 10000.000 0.000 0.330
93 279.00 1500.01 135 203 0.370 10000.000 0.000 0.330
94 282.00 1500.01 146 224 0.370 10000.000 0.000 0.330
95 285.00 1500.01 138 214 0.370 10000.000 0.000 0.330
96 288.00 1500.01 131 223 0.370 10000.000 0.000 0.330
97 291.00 1500.01 148 240 0.370 10000.000 0.000 0.330
98 294.00 1500.01 136 249 0.370 10000.000 0.000 0.330
99 297.00 1500.01 168 216 0.370 10000.000 0.000 0.330
100 300.00 1500.01 146 260 0.370 10000.000 0.000 0.330
101 303.00 1500.01 154 239 0.370 10000.000 0.000 0.330
102 306.00 1500.01 152 240 0.370 10000.000 0.000 0.330
103 309.00 1500.01 171 225 0.370 10000.000 0.000 0.330
104 312.00 1500.01 130 210 0.370 10000.000 0.000 0.330
105 315.00 1500.01 141 216 0.370 10000.000 0.000 0.330
106 318.00 1500.01 148 197 0.370 10000.000 0.000 0.330
107 321.00 1500.01 156 204 0.370 10000.000 0.000 0.330
108 324.00 1500.01 141 192 0.370 10000.000 0.000 0.330
109 327.00 1500.01 131 158 0.370 10000.000 0.000 0.330
110 330.00 1500.01 133 174 0.370 10000.000 0.000 0.330
111 333.00 1500.01 159 156 0.370 10000.000 0.000 0.330
112 336.00 1500.01 162 165 0.370 10000.000 0.000 0.330
113 339.00 1500.01 132 154 0.370 10000.000 0.000 0.330
114 342.00 1500.01 153 154 0.370 10000.000 0.000 0.330
115 345.00 1500.01 160 151 0.370 10000.000 0.000 0.330
116 348.00 1500.01 151 165 0.370 10000.000 0.000 0.330
117 351.00 1500.01 164 148 0.370 10000.000 0.000 0.330
118 354.00 1500.01 152 169 0.370 10000.000 0.000 0.330
119 357.00 1500.01 158 180 0.370 10000.000 0.000 0.330
120 360.00 1500.01 195 168 0.370 10000.000 0.000 0.330
121 363.00 1500.01 182 155 0.370 10000.000 0.000 0.330
122 366.00 1500.01 165 166 0.370 10000.000 0.000 0.330
123 369.00 1500.01 154 174 0.370 10000.000 0.000 0.330
124 372.00 1500.01 149 188 0.370 10000.000 0.000 0.330
125 375.00 1500.01 153 166 0.370 10000.000 0.000 0.330
126 378.00 1500.01 171 208 0.370 10000.000 0.000 0.330
127 381.00 1500.01 168 209 0.370 10000.000 0.000 0.330
128 384.00 1500.01 155 230 0.370 10000.000 0.000 0.330
129 387.00 1500.01 161 232 0.370 10000.000 0.000 0.330
130 390.00 1500.01 166 227 0.370 10000.000 0.000 0.330
131 393.00 1500.01 146 269 0.370 10000.000 0.000 0.330
132 396.00 1500.01 139 230 0.370 10000.000 0.000 0.330
133 399.00 1500.01 141 228 0.370 10000.000 0.000 0.330
134 402.00 1500.01 157 237 0.370 10000.000 0.000 0.330
135 405.00 1500.01 139 235 0.370 10000.000 0.000 0.330
136 408.00 1500.01 138 220 0.370 10000.000 0.000 0.330
137 411.00 1500.01 126 207 0.370 10000.000 0.000 0.330
138 414.00 1500.01 149 216 0.370 10000.000 0.000 0.330
139 417.00 1500.01 129 188 0.370 10000.000 0.000 0.330
140 420.00 1500.01 119 204 0.370 10000.000 0.000 0.330
141 423.00 1500.01 136 165 0.370 10000.000 0.000 0.330
142 426.00 1500.01 121 170 0.370 10000.000 0.000 0.330
143 429.00 1500.01 136 158 0.370 10000.000 0.000 0.330
144 432.00 1500.01 157 172 0.370 10000.000 0.000 0.330
