# BinNR microsec tot-time (s)  O-Beam AUX Ampl(V) f(Hz) phase(deg) chi(pos)
0 0.00 1500.05 209 418 0.370 10000.000 0.000 -0.176
1 3.00 1500.05 388 811 0.370 10000.000 0.000 -0.176
2 6.00 1500.05 383 866 0.370 10000.000 0.000 -0.176
3 9.00 1500.05 370 836 0.370 10000.000 0.000 -0.176
4 12.00 1500.05 354 846 0.370 10000.000 0.000 -0.176
5 15.00 1500.05 386 790 0.370 10000.000 0.000 -0.176
6 18.00 1500.05 394 868 0.370 10000.000 0.000 -0.176
7 21.00 1500.05 370 834 0.370 10000.000 0.000 -0.176
8 24.00 1500.05 423 863 0.370 10000.000 0.000 -0.176
9 27.00 1500.05 394 854 0.370 10000.000 0.000 -0.176
10 30.00 1500.05 390 871 0.370 10000.000 0.000 -0.176
11 33.00 1500.05 393 898 0.370 10000.000 0.000 -0.176
12 36.00 1500.05 426 871 0.370 10000.000 0.000 -0.176
13 39.00 1500.05 400 890 0.370 10000.000 0.000 -0.176
14 42.00 1500.05 412 881 0.370 10000.000 0.000 -0.176
15 45.00 1500.05 388 852 0.370 10000.000 0.000 -0.176
16 48.00 1500.05 386 854 0.370 10000.000 0.000 -0.176
17 51.00 1500.05 390 809 0.370 10000.000 0.000 -0.176
18 54.00 1500.05 385 828 0.370 10000.000 0.000 -0.176
19 57.00 1500.05 383 829 0.370 10000.000 0.000 -0.176
20 60.00 1500.05 393 842 0.370 10000.000 0.000 -0.176
21 63.00 1500.05 347 831 0.370 10000.000 0.000 -0.176
22 66.00 1500.05 359 820 0.370 10000.000 0.000 -0.176
23 69.00 1500.05 375 828 0.370 10000.000 0.000 -0.176
24 72.00 1500.05 404 844 0.370 10000.000 0.000 -0.176
25 75.00 1500.05 338 886 0.370 10000.000 0.000 -0.176
26 78.00 1500.05 345 915 0.370 10000.000 0.000 -0.176
27 81.00 1500.05 385 854 0.370 10000.000 0.000 -0.176
28 84.00 1500.05 368 934 0.370 10000.000 0.000 -0.176
29 87.00 1500.05 372 962 0.370 10000.000 0.000 -0.176
30 90.00 1500.05 373 994 0.370 10000.000 0.000 -0.176
31 93.00 1500.05 368 951 0.370 10000.000 0.000 -0.176
32 96.00 1500.05 372 944 0.370 10000.000 0.000 -0.176
33 99.00 1500.05 395 1000 0.370 10000.000 0.000 -0.176
34 102.00 1500.05 378 980 0.370 10000.000 0.000 -0.176
35 105.00 1500.05 370 897 0.370 10000.000 0.000 -0.176
36 108.00 1500.05 356 931 0.370 10000.000 0.000 -0.176
37 111.00 1500.05 340 936 0.370 10000.000 0.000 -0.176
38 114.00 1500.05 382 982 0.370 10000.000 0.000 -0.176
39 117.00 1500.05 367 860 0.370 10000.000 0.000 -0.176
40 120.00 1500.05 361 897 0.370 10000.000 0.000 -0.176
41 123.00 1500.05 434 895 0.370 10000.000 0.000 -0.176
42 126.00 1500.05 358 916 0.370 10000.000 0.000 -0.176
43 129.00 1500.05 358 844 0.370 10000.000 0.000 -0.176
44 132.00 1500.05 375 871 0.370 10000.000 0.000 -0.176
45 135.00 1500.05 380 777 0.370 10000.000 0.000 -0.176
46 138.00 1500.05 391 824 0.370 10000.000 0.000 -0.176
47 141.00 1500.05 372 764 0.370 10000.000 0.000 -0.176
48 144.00 1500.05 366 798 0.370 10000.000 0.000 -0.176
49 147.00 1500.05 367 747 0.370 10000.000 0.000 -0.176
50 150.00 1500.05 405 739 0.370 10000.000 0.000 -0.176
51 153.00 1500.05 384 810 0.370 10000.000 0.000 -0.176
52 156.00 1500.05 403 829 0.370 10000.000 0.000 -0.176
53 159.00 1500.05 386 763 0.370 10000.000 0.000 -0.176
54 162.00 1500.05 334 810 0.370 10000.000 0.000 -0.176
55 165.00 1500.05 364 848 0.370 10000.000 0.000 -0.176
56 168.00 1500.05 392 838 0.370 10000.000 0.000 -0.176
57 171.00 1500.05 384 865 0.370 10000.000 0.000 -0.176
58 174.00 1500.05 371 886 0.370 10000.000 0.000 -0.176
59 177.00 1500.05 378 914 0.370 10000.000 0.000 -0.176
60 180.00 1500.05 369 926 0.370 10000.000 0.000 -0.176
61 183.00 1500.05 379 940 0.370 10000.000 0.000 -0.176
62 186.00 1500.05 363 955 0.370 10000.000 0.000 -0.176
63 189.00 1500.05 355 943 0.370 10000.000 0.000 -0.176
64 192.00 1500.05 341 950 0.370 10000.000 0.000 -0.176
65 195.00 1500.05 375 908 0.370 10000.000 0.000 -0.176
66 198.00 1500.05 391 1007 0.370 10000.000 0.000 -0.176
67 201.00 1500.05 341 943 0.370 10000.000 0.000 -0.176
68 204.00 1500.05 373 920 0.370 10000.000 0.000 -0.176
69 207.00 1500.05 371 936 0.370 10000.000 0.000 -0.176
70 210.00 1500.05 433 962 0.370 10000.000 0.000 -0.176
71 213.00 1500.05 414 901 0.370 10000.000 0.000 -0.176
72 216.00 1500.05 351 943 0.370 10000.000 0.000 -0.176
73 219.00 1500.05 365 872 0.370 10000.000 0.000 -0.176
74 222.00 1500.05 405 910 0.370 10000.000 0.000 -0.176
75 225.00 1500.05 353 875 0.370 10000.000 0.000 -0.176
76 228.00 1500.05 399 868 0.370 10000.000 0.000 -0.176
77 231.00 1500.05 383 814 0.370 10000.000 0.000 -0.176
78 234.00 1500.05 415 864 0.370 10000.000 0.000 -0.176
79 237.00 1500.05 401 870 0.370 10000.000 0.000 -0.176
80 240.00 1500.05 417 824 0.370 10000.000 0.000 -0.176
81 243.00 1500.05 383 831 0.370 10000.000 0.000 -0.176
82 246.00 1500.05 422 800 0.370 10000.000 0.000 -0.176
83 249.00 1500.05 369 774 0.370 10000.000 0.000 -0.176
84 252.00 1500.05 371 787 0.370 10000.000 0.000 -0.176
85 255.00 1500.05 371 765 0.370 10000.000 0.000 -0.176
86 258.00 1500.05 415 778 0.370 10000.000 0.000 -0.176
87 261.00 1500.05 342 790 0.370 10000.000 0.000 -0.176
88 264.00 1500.05 391 872 0.370 10000.000 0.000 -0.176
89 267.00 1500.05 337 872 0.370 10000.000 0.000 -0.176
90 270.00 1500.05 386 877 0.370 10000.000 0.000 -0.176
91 273.00 1500.05 369 874 0.370 10000.000 0.000 -0.176
92 276.00 1500.05 369 904 0.370 10000.000 0.000 -0.176
93 279.00 1500.05 370 898 0.370 10000.000 0.000 -0.176
94 282.00 1500.05 335 955 0.370 10000.000 0.000 -0.176
95 285.00 1500.05 353 1008 0.370 10000.000 0.000 -0.176
96 288.00 1500.05 370 923 0.370 10000.000 0.000 -0.176
97 291.00 1500.05 392 908 0.370 10000.000 0.000 -0.176
98 294.00 1500.05 365 960 0.370 10000.000 0.000 -0.176
99 297.00 1500.05 378 924 0.370 10000.000 0.000 -0.176
100 300.00 1500.05 383 973 0.370 10000.000 0.000 -0.176
101 303.00 1500.05 390 1025 0.370 10000.000 0.000 -0.176
102 306.00 1500.05 353 1027 0.370 10000.000 0.000 -0.176
103 309.00 1500.05 358 898 0.370 10000.000 0.000 -0.176
104 312.00 1500.05 376 975 0.370 10000.000 0.000 -0.176
105 315.00 1500.05 382 941 0.370 10000.000 0.000 -0.176
106 318.00 1500.05 387 884 0.370 10000.000 0.000 -0.176
107 321.00 1500.05 375 843 0.370 10000.000 0.000 -0.176
108 324.00 1500.05 371 873 0.370 10000.000 0.000 -0.176
109 327.00 1500.05 349 853 0.370 10000.000 0.000 -0.176
110 330.00 1500.05 386 881 0.370 10000.000 0.000 -0.176
111 333.00 1500.05 364 831 0.370 10000.000 0.000 -0.176
112 336.00 1500.05 377 876 0.370 10000.000 0.000 -0.176
113 339.00 1500.05 398 804 0.370 10000.000 0.000 -0.176
114 342.00 1500.05 382 773 0.370 10000.000 0.000 -0.176
115 345.00 1500.05 327 763 0.370 10000.000 0.000 -0.176
116 348.00 1500.05 385 720 0.370 10000.000 0.000 -0.176
117 351.00 1500.05 373 767 0.370 10000.000 0.000 -0.176
118 354.00 1500.05 396 795 0.370 10000.000 0.000 -0.176
119 357.00 1500.05 392 824 0.370 10000.000 0.000 -0.176
120 360.00 1500.05 398 842 0.370 10000.000 0.000 -0.176
121 363.00 1500.05 363 803 0.370 10000.000 0.000 -0.176
122 366.00 1500.05 412 847 0.370 10000.000 0.000 -0.176
123 369.00 1500.05 397 820 0.370 10000.000 0.000 -0.176
124 372.00 1500.05 407 899 0.370 10000.000 0.000 -0.176
125 375.00 1500.05 398 874 0.370 10000.000 0.000 -0.176
126 378.00 1500.05 409 908 0.370 10000.000 0.000 -0.176
127 381.00 1500.05 409 882 0.370 10000.000 0.000 -0.176
128 384.00 1500.05 360 958 0.370 10000.000 0.000 -0.176
129 387.00 1500.05 376 931 0.370 10000.000 0.000 -0.176
130 390.00 1500.05 381 947 0.370 10000.000 0.000 -0.176
131 393.00 1500.05 354 989 0.370 10000.000 0.000 -0.176
132 396.00 1500.05 371 941 0.370 10000.000 0.000 -0.176
133 399.00 1500.05 359 928 0.370 10000.000 0.000 -0.176
134 402.00 1500.05 362 956 0.370 10000.000 0.000 -0.176
135 405.00 1500.05 372 939 0.370 10000.000 0.000 -0.176
136 408.00 1500.05 357 960 0.370 10000.000 0.000 -0.176
137 411.00 1500.05 385 919 0.370 10000.000 0.000 -0.176
138 414.00 1500.05 350 902 0.370 10000.000 0.000 -0.176
139 417.00 1500.05 381 943 0.370 10000.000 0.000 -0.176
140 420.00 1500.05 376 916 0.370 10000.000 0.000 -0.176
141 423.00 1500.05 351 818 0.370 10000.000 0.000 -0.176
142 426.00 1500.05 373 876 0.370 10000.000 0.000 -0.176
143 429.00 1500.05 363 866 0.370 10000.000 0.000 -0.176
144 432.00 1500.05 364 843 0.370 10000.000 0.000 -0.176
