# BinNR microsec tot-time (s)  O-Beam AUX Ampl(V) f(Hz) phase(deg) chi(pos)
0 0.00 1500.01 85 269 0.370 10000.000 0.000 0.824
1 3.00 1500.01 148 490 0.370 10000.000 0.000 0.824
2 6.00 1500.01 150 568 0.370 10000.000 0.000 0.824
3 9.00 1500.01 131 494 0.370 10000.000 0.000 0.824
4 12.00 1500.01 152 488 0.370 10000.000 0.000 0.824
5 15.00 1500.01 133 500 0.370 10000.000 0.000 0.824
6 18.00 1500.01 142 531 0.370 10000.000 0.000 0.824
7 21.00 1500.01 123 491 0.370 10000.000 0.000 0.824
8 24.00 1500.01 129 431 0.370 10000.000 0.000 0.824
9 27.00 1500.01 113 413 0.370 10000.000 0.000 0.824
10 30.00 1500.01 131 462 0.370 10000.000 0.000 0.824
11 33.00 1500.01 132 452 0.370 10000.000 0.000 0.824
12 36.00 1500.01 125 416 0.370 10000.000 0.000 0.824
13 39.00 1500.01 128 491 0.370 10000.000 0.000 0.824
14 42.00 1500.01 128 487 0.370 10000.000 0.000 0.824
15 45.00 1500.01 132 486 0.370 10000.000 0.000 0.824
16 48.00 1500.01 139 471 0.370 10000.000 0.000 0.824
17 51.00 1500.01 131 531 0.370 10000.000 0.000 0.824
18 54.00 1500.01 154 478 0.370 10000.000 0.000 0.824
19 57.00 1500.01 127 527 0.370 10000.000 0.000 0.824
20 60.00 1500.01 121 502 0.370 10000.000 0.000 0.824
21 63.00 1500.01 117 462 0.370 10000.000 0.000 0.824
22 66.00 1500.01 149 504 0.370 10000.000 0.000 0.824
23 69.00 1500.01 167 478 0.370 10000.000 0.000 0.824
24 72.00 1500.01 142 475 0.370 10000.000 0.000 0.824
25 75.00 1500.01 147 445 0.370 10000.000 0.000 0.824
26 78.00 1500.01 161 419 0.370 10000.000 0.000 0.824
27 81.00 1500.01 170 397 0.370 10000.000 0.000 0.824
28 84.00 1500.01 176 409 0.370 10000.000 0.000 0.824
29 87.00 1500.01 192 391 0.370 10000.000 0.000 0.824
30 90.00 1500.01 173 383 0.370 10000.000 0.000 0.824
31 93.00 1500.01 128 427 0.370 10000.000 0.000 0.824
32 96.00 1500.01 156 389 0.370 10000.000 0.000 0.824
33 99.00 1500.01 146 412 0.370 10000.000 0.000 0.824
34 102.00 1500.01 154 365 0.370 10000.000 0.000 0.824
35 105.00 1500.01 149 373 0.370 10000.000 0.000 0.824
36 108.00 1500.01 150 395 0.370 10000.000 0.000 0.824
37 111.00 1500.01 123 399 0.370 10000.000 0.000 0.824
38 114.00 1500.01 123 411 0.370 10000.000 0.000 0.824
39 117.00 1500.01 132 411 0.370 10000.000 0.000 0.824
40 120.00 1500.01 120 454 0.370 10000.000 0.000 0.824
41 123.00 1500.01 136 472 0.370 10000.000 0.000 0.824
42 126.00 1500.01 118 475 0.370 10000.000 0.000 0.824
43 129.00 1500.01 137 482 0.370 10000.000 0.000 0.824
44 132.00 1500.01 116 570 0.370 10000.000 0.000 0.824
45 135.00 1500.01 134 512 0.370 10000.000 0.000 0.824
46 138.00 1500.01 151 541 0.370 10000.000 0.000 0.824
47 141.00 1500.01 131 502 0.370 10000.000 0.000 0.824
48 144.00 1500.01 121 557 0.370 10000.000 0.000 0.824
49 147.00 1500.01 143 564 0.370 10000.000 0.000 0.824
50 150.00 1500.01 136 500 0.370 10000.000 0.000 0.824
51 153.00 1500.01 122 581 0.370 10000.000 0.000 0.824
52 156.00 1500.01 143 531 0.370 10000.000 0.000 0.824
53 159.00 1500.01 136 514 0.370 10000.000 0.000 0.824
54 162.00 1500.01 153 522 0.370 10000.000 0.000 0.824
55 165.00 1500.01 133 501 0.370 10000.000 0.000 0.824
56 168.00 1500.01 182 537 0.370 10000.000 0.000 0.824
57 171.00 1500.01 148 429 0.370 10000.000 0.000 0.824
58 174.00 1500.01 172 447 0.370 10000.000 0.000 0.824
59 177.00 1500.01 136 437 0.370 10000.000 0.000 0.824
60 180.00 1500.01 177 428 0.370 10000.000 0.000 0.824
61 183.00 1500.01 154 446 0.370 10000.000 0.000 0.824
62 186.00 1500.01 152 400 0.370 10000.000 0.000 0.824
63 189.00 1500.01 142 375 0.370 10000.000 0.000 0.824
64 192.00 1500.01 143 363 0.370 10000.000 0.000 0.824
65 195.00 1500.01 158 410 0.370 10000.000 0.000 0.824
66 198.00 1500.01 155 367 0.370 10000.000 0.000 0.824
67 201.00 1500.01 144 352 0.370 10000.000 0.000 0.824
68 204.00 1500.01 179 401 0.370 10000.000 0.000 0.824
69 207.00 1500.01 139 412 0.370 10000.000 0.000 0.824
70 210.00 1500.01 147 413 0.370 10000.000 0.000 0.824
71 213.00 1500.01 151 394 0.370 10000.000 0.000 0.824
72 216.00 1500.01 136 442 0.370 10000.000 0.000 0.824
73 219.00 1500.01 141 387 0.370 10000.000 0.000 0.824
74 222.00 1500.01 122 433 0.370 10000.000 0.000 0.824
75 225.00 1500.01 123 480 0.370 10000.000 0.000 0.824
76 228.00 1500.01 130 480 0.370 10000.000 0.000 0.824
77 231.00 1500.01 124 504 0.370 10000.000 0.000 0.824
78 234.00 1500.01 131 498 0.370 10000.000 0.000 0.824
79 237.00 1500.01 129 548 0.370 10000.000 0.000 0.824
80 240.00 1500.01 124 548 0.370 10000.000 0.000 0.824
81 243.00 1500.01 113 537 0.370 10000.000 0.000 0.824
82 246.00 1500.01 136 548 0.370 10000.000 0.000 0.824
83 249.00 1500.01 115 533 0.370 10000.000 0.000 0.824
84 252.00 1500.01 131 583 0.370 10000.000 0.000 0.824
85 255.00 1500.01 121 528 0.370 10000.000 0.000 0.824
86 258.00 1500.01 160 529 0.370 10000.000 0.000 0.824
87 261.00 1500.01 130 512 0.370 10000.000 0.000 0.824
88 264.00 1500.01 131 497 0.370 10000.000 0.000 0.824
89 267.00 1500.01 147 488 0.370 10000.000 0.000 0.824
90 270.00 1500.01 134 479 0.370 10000.000 0.000 0.824
91 273.00 1500.01 134 449 0.370 10000.000 0.000 0.824
92 276.00 1500.01 161 472 0.370 10000.000 0.000 0.824
93 279.00 1500.01 165 430 0.370 10000.000 0.000 0.824
94 282.00 1500.01 148 402 0.370 10000.000 0.000 0.824
95 285.00 1500.01 165 371 0.370 10000.000 0.000 0.824
96 288.00 1500.01 143 388 0.370 10000.000 0.000 0.824
97 291.00 1500.01 183 398 0.370 10000.000 0.000 0.824
98 294.00 1500.01 149 399 0.370 10000.000 0.000 0.824
99 297.00 1500.01 150 399 0.370 10000.000 0.000 0.824
100 300.00 1500.01 160 376 0.370 10000.000 0.000 0.824
101 303.00 1500.01 130 365 0.370 10000.000 0.000 0.824
102 306.00 1500.01 148 382 0.370 10000.000 0.000 0.824
103 309.00 1500.01 122 392 0.370 10000.000 0.000 0.824
104 312.00 1500.01 167 375 0.370 10000.000 0.000 0.824
105 315.00 1500.01 146 412 0.370 10000.000 0.000 0.824
106 318.00 1500.01 164 424 0.370 10000.000 0.000 0.824
107 321.00 1500.01 163 471 0.370 10000.000 0.000 0.824
108 324.00 1500.01 167 476 0.370 10000.000 0.000 0.824
109 327.00 1500.01 170 489 0.370 10000.000 0.000 0.824
110 330.00 1500.01 155 506 0.370 10000.000 0.000 0.824
111 333.00 1500.01 158 480 0.370 10000.000 0.000 0.824
112 336.00 1500.01 157 549 0.370 10000.000 0.000 0.824
113 339.00 1500.01 148 481 0.370 10000.000 0.000 0.824
114 342.00 1500.01 154 567 0.370 10000.000 0.000 0.824
115 345.00 1500.01 143 525 0.370 10000.000 0.000 0.824
116 348.00 1500.01 133 578 0.370 10000.000 0.000 0.824
117 351.00 1500.01 133 544 0.370 10000.000 0.000 0.824
118 354.00 1500.01 115 510 0.370 10000.000 0.000 0.824
119 357.00 1500.01 128 545 0.370 10000.000 0.000 0.824
120 360.00 1500.01 129 527 0.370 10000.000 0.000 0.824
121 363.00 1500.01 140 446 0.370 10000.000 0.000 0.824
122 366.00 1500.01 128 549 0.370 10000.000 0.000 0.824
123 369.00 1500.01 124 464 0.370 10000.000 0.000 0.824
124 372.00 1500.01 109 465 0.370 10000.000 0.000 0.824
125 375.00 1500.01 111 448 0.370 10000.000 0.000 0.824
126 378.00 1500.01 126 410 0.370 10000.000 0.000 0.824
127 381.00 1500.01 143 418 0.370 10000.000 0.000 0.824
128 384.00 1500.01 144 402 0.370 10000.000 0.000 0.824
129 387.00 1500.01 141 412 0.370 10000.000 0.000 0.824
130 390.00 1500.01 131 413 0.370 10000.000 0.000 0.824
131 393.00 1500.01 146 374 0.370 10000.000 0.000 0.824
132 396.00 1500.01 147 402 0.370 10000.000 0.000 0.824
133 399.00 1500.01 153 410 0.370 10000.000 0.000 0.824
134 402.00 1500.01 147 362 0.370 10000.000 0.000 0.824
135 405.00 1500.01 129 422 0.370 10000.000 0.000 0.824
136 408.00 1500.01 147 400 0.370 10000.000 0.000 0.824
137 411.00 1500.01 162 358 0.370 10000.000 0.000 0.824
138 414.00 1500.01 157 412 0.370 10000.000 0.000 0.824
139 417.00 1500.01 150 421 0.370 10000.000 0.000 0.824
140 420.00 1500.01 172 449 0.370 10000.000 0.000 0.824
141 423.00 1500.01 168 452 0.370 10000.000 0.000 0.824
142 426.00 1500.01 177 471 0.370 10000.000 0.000 0.824
143 429.00 1500.01 164 465 0.370 10000.000 0.000 0.824
144 432.00 1500.01 148 520 0.370 10000.000 0.000 0.824
