# BinNR microsec tot-time (s)  O-Beam AUX Ampl(V) f(Hz) phase(deg) chi(pos)
0 0.00 1500.02 208 665 0.370 10000.000 0.000 -0.670
1 3.00 1500.02 389 1250 0.370 10000.000 0.000 -0.670
2 6.00 1500.02 385 1256 0.370 10000.000 0.000 -0.670
3 9.00 1500.02 440 1191 0.370 10000.000 0.000 -0.670
4 12.00 1500.02 432 1274 0.370 10000.000 0.000 -0.670
5 15.00 1500.02 419 1211 0.370 10000.000 0.000 -0.670
6 18.00 1500.02 387 1286 0.370 10000.000 0.000 -0.670
7 21.00 1500.02 398 1249 0.370 10000.000 0.000 -0.670
8 24.00 1500.02 394 1312 0.370 10000.000 0.000 -0.670
9 27.00 1500.02 394 1231 0.370 10000.000 0.000 -0.670
10 30.00 1500.02 403 1316 0.370 10000.000 0.000 -0.670
11 33.00 1500.02 402 1158 0.370 10000.000 0.000 -0.670
12 36.00 1500.02 394 1258 0.370 10000.000 0.000 -0.670
13 39.00 1500.02 419 1224 0.370 10000.000 0.000 -0.670
14 42.00 1500.02 425 1232 0.370 10000.000 0.000 -0.670
15 45.00 1500.02 383 1191 0.370 10000.000 0.000 -0.670
16 48.00 1500.02 366 1273 0.370 10000.000 0.000 -0.670
17 51.00 1500.02 397 1210 0.370 10000.000 0.000 -0.670
18 54.00 1500.02 388 1281 0.370 10000.000 0.000 -0.670
19 57.00 1500.02 407 1241 0.370 10000.000 0.000 -0.670
20 60.00 1500.02 401 1282 0.370 10000.000 0.000 -0.670
21 63.00 1500.02 405 1226 0.370 10000.000 0.000 -0.670
22 66.00 1500.02 451 1206 0.370 10000.000 0.000 -0.670
23 69.00 1500.02 377 1298 0.370 10000.000 0.000 -0.670
24 72.00 1500.02 394 1228 0.370 10000.000 0.000 -0.670
25 75.00 1500.02 429 1235 0.370 10000.000 0.000 -0.670
26 78.00 1500.02 430 1248 0.370 10000.000 0.000 -0.670
27 81.00 1500.02 397 1205 0.370 10000.000 0.000 -0.670
28 84.00 1500.02 415 1237 0.370 10000.000 0.000 -0.670
29 87.00 1500.02 431 1204 0.370 10000.000 0.000 -0.670
30 90.00 1500.02 460 1295 0.370 10000.000 0.000 -0.670
31 93.00 1500.02 404 1297 0.370 10000.000 0.000 -0.670
32 96.00 1500.02 433 1211 0.370 10000.000 0.000 -0.670
33 99.00 1500.02 420 1197 0.370 10000.000 0.000 -0.670
34 102.00 1500.02 399 1217 0.370 10000.000 0.000 -0.670
35 105.00 1500.02 398 1252 0.370 10000.000 0.000 -0.670
36 108.00 1500.02 382 1154 0.370 10000.000 0.000 -0.670
37 111.00 1500.02 422 1222 0.370 10000.000 0.000 -0.670
38 114.00 1500.02 413 1205 0.370 10000.000 0.000 -0.670
39 117.00 1500.02 403 1163 0.370 10000.000 0.000 -0.670
40 120.00 1500.02 415 1264 0.370 10000.000 0.000 -0.670
41 123.00 1500.02 384 1316 0.370 10000.000 0.000 -0.670
42 126.00 1500.02 369 1298 0.370 10000.000 0.000 -0.670
43 129.00 1500.02 376 1281 0.370 10000.000 0.000 -0.670
44 132.00 1500.02 381 1231 0.370 10000.000 0.000 -0.670
45 135.00 1500.02 392 1297 0.370 10000.000 0.000 -0.670
46 138.00 1500.02 386 1271 0.370 10000.000 0.000 -0.670
47 141.00 1500.02 384 1199 0.370 10000.000 0.000 -0.670
48 144.00 1500.02 422 1233 0.370 10000.000 0.000 -0.670
49 147.00 1500.02 398 1241 0.370 10000.000 0.000 -0.670
50 150.00 1500.02 427 1352 0.370 10000.000 0.000 -0.670
51 153.00 1500.02 368 1294 0.370 10000.000 0.000 -0.670
52 156.00 1500.02 405 1260 0.370 10000.000 0.000 -0.670
53 159.00 1500.02 432 1234 0.370 10000.000 0.000 -0.670
54 162.00 1500.02 414 1253 0.370 10000.000 0.000 -0.670
55 165.00 1500.02 419 1267 0.370 10000.000 0.000 -0.670
56 168.00 1500.02 426 1253 0.370 10000.000 0.000 -0.670
57 171.00 1500.02 402 1301 0.370 10000.000 0.000 -0.670
58 174.00 1500.02 420 1261 0.370 10000.000 0.000 -0.670
59 177.00 1500.02 437 1246 0.370 10000.000 0.000 -0.670
60 180.00 1500.02 420 1281 0.370 10000.000 0.000 -0.670
61 183.00 1500.02 406 1173 0.370 10000.000 0.000 -0.670
62 186.00 1500.02 419 1236 0.370 10000.000 0.000 -0.670
63 189.00 1500.02 426 1111 0.370 10000.000 0.000 -0.670
64 192.00 1500.02 401 1256 0.370 10000.000 0.000 -0.670
65 195.00 1500.02 438 1180 0.370 10000.000 0.000 -0.670
66 198.00 1500.02 439 1254 0.370 10000.000 0.000 -0.670
67 201.00 1500.02 410 1243 0.370 10000.000 0.000 -0.670
68 204.00 1500.02 431 1193 0.370 10000.000 0.000 -0.670
69 207.00 1500.02 409 1217 0.370 10000.000 0.000 -0.670
70 210.00 1500.02 369 1258 0.370 10000.000 0.000 -0.670
71 213.00 1500.02 387 1221 0.370 10000.000 0.000 -0.670
72 216.00 1500.02 418 1166 0.370 10000.000 0.000 -0.670
73 219.00 1500.02 403 1201 0.370 10000.000 0.000 -0.670
74 222.00 1500.02 403 1288 0.370 10000.000 0.000 -0.670
75 225.00 1500.02 391 1201 0.370 10000.000 0.000 -0.670
76 228.00 1500.02 387 1252 0.370 10000.000 0.000 -0.670
77 231.00 1500.02 404 1244 0.370 10000.000 0.000 -0.670
78 234.00 1500.02 425 1305 0.370 10000.000 0.000 -0.670
79 237.00 1500.02 377 1204 0.370 10000.000 0.000 -0.670
80 240.00 1500.02 403 1273 0.370 10000.000 0.000 -0.670
81 243.00 1500.02 388 1260 0.370 10000.000 0.000 -0.670
82 246.00 1500.02 385 1333 0.370 10000.000 0.000 -0.670
83 249.00 1500.02 376 1191 0.370 10000.000 0.000 -0.670
84 252.00 1500.02 414 1265 0.370 10000.000 0.000 -0.670
85 255.00 1500.02 376 1206 0.370 10000.000 0.000 -0.670
86 258.00 1500.02 418 1249 0.370 10000.000 0.000 -0.670
87 261.00 1500.02 375 1231 0.370 10000.000 0.000 -0.670
88 264.00 1500.02 393 1335 0.370 10000.000 0.000 -0.670
89 267.00 1500.02 401 1289 0.370 10000.000 0.000 -0.670
90 270.00 1500.02 438 1314 0.370 10000.000 0.000 -0.670
91 273.00 1500.02 404 1243 0.370 10000.000 0.000 -0.670
92 276.00 1500.02 444 1241 0.370 10000.000 0.000 -0.670
93 279.00 1500.02 434 1257 0.370 10000.000 0.000 -0.670
94 282.00 1500.02 400 1241 0.370 10000.000 0.000 -0.670
95 285.00 1500.02 407 1158 0.370 10000.000 0.000 -0.670
96 288.00 1500.02 454 1285 0.370 10000.000 0.000 -0.670
97 291.00 1500.02 426 1149 0.370 10000.000 0.000 -0.670
98 294.00 1500.02 392 1289 0.370 10000.000 0.000 -0.670
99 297.00 1500.02 371 1275 0.370 10000.000 0.000 -0.670
100 300.00 1500.02 435 1189 0.370 10000.000 0.000 -0.670
101 303.00 1500.02 420 1194 0.370 10000.000 0.000 -0.670
102 306.00 1500.02 397 1257 0.370 10000.000 0.000 -0.670
103 309.00 1500.02 398 1265 0.370 10000.000 0.000 -0.670
104 312.00 1500.02 425 1237 0.370 10000.000 0.000 -0.670
105 315.00 1500.02 421 1223 0.370 10000.000 0.000 -0.670
106 318.00 1500.02 428 1251 0.370 10000.000 0.000 -0.670
107 321.00 1500.02 404 1239 0.370 10000.000 0.000 -0.670
108 324.00 1500.02 434 1298 0.370 10000.000 0.000 -0.670
109 327.00 1500.02 405 1280 0.370 10000.000 0.000 -0.670
110 330.00 1500.02 446 1244 0.370 10000.000 0.000 -0.670
111 333.00 1500.02 370 1202 0.370 10000.000 0.000 -0.670
112 336.00 1500.02 389 1284 0.370 10000.000 0.000 -0.670
113 339.00 1500.02 404 1187 0.370 10000.000 0.000 -0.670
114 342.00 1500.02 428 1291 0.370 10000.000 0.000 -0.670
115 345.00 1500.02 382 1220 0.370 10000.000 0.000 -0.670
116 348.00 1500.02 419 1283 0.370 10000.000 0.000 -0.670
117 351.00 1500.02 391 1280 0.370 10000.000 0.000 -0.670
118 354.00 1500.02 401 1244 0.370 10000.000 0.000 -0.670
119 357.00 1500.02 387 1291 0.370 10000.000 0.000 -0.670
120 360.00 1500.02 453 1307 0.370 10000.000 0.000 -0.670
121 363.00 1500.02 429 1225 0.370 10000.000 0.000 -0.670
122 366.00 1500.02 378 1233 0.370 10000.000 0.000 -0.670
123 369.00 1500.02 396 1228 0.370 10000.000 0.000 -0.670
124 372.00 1500.02 383 1212 0.370 10000.000 0.000 -0.670
125 375.00 1500.02 397 1226 0.370 10000.000 0.000 -0.670
126 378.00 1500.02 381 1335 0.370 10000.000 0.000 -0.670
127 381.00 1500.02 392 1198 0.370 10000.000 0.000 -0.670
128 384.00 1500.02 407 1241 0.370 10000.000 0.000 -0.670
129 387.00 1500.02 369 1231 0.370 10000.000 0.000 -0.670
130 390.00 1500.02 433 1227 0.370 10000.000 0.000 -0.670
131 393.00 1500.02 416 1220 0.370 10000.000 0.000 -0.670
132 396.00 1500.02 403 1249 0.370 10000.000 0.000 -0.670
133 399.00 1500.02 394 1266 0.370 10000.000 0.000 -0.670
134 402.00 1500.02 444 1246 0.370 10000.000 0.000 -0.670
135 405.00 1500.02 406 1164 0.370 10000.000 0.000 -0.670
136 408.00 1500.02 410 1266 0.370 10000.000 0.000 -0.670
137 411.00 1500.02 429 1187 0.370 10000.000 0.000 -0.670
138 414.00 1500.02 402 1247 0.370 10000.000 0.000 -0.670
139 417.00 1500.02 432 1233 0.370 10000.000 0.000 -0.670
140 420.00 1500.02 428 1240 0.370 10000.000 0.000 -0.670
141 423.00 1500.02 410 1228 0.370 10000.000 0.000 -0.670
142 426.00 1500.02 441 1259 0.370 10000.000 0.000 -0.670
143 429.00 1500.02 440 1205 0.370 10000.000 0.000 -0.670
144 432.00 1500.02 430 1288 0.370 10000.000 0.000 -0.670
