# BinNR microsec tot-time (s)  O-Beam AUX Ampl(V) f(Hz) phase(deg) chi(pos)
0 0.00 1500.06 91 374 0.370 10000.000 0.000 0.989
1 3.00 1500.06 211 790 0.370 10000.000 0.000 0.989
2 6.00 1500.06 200 797 0.370 10000.000 0.000 0.989
3 9.00 1500.06 223 773 0.370 10000.000 0.000 0.989
4 12.00 1500.06 253 753 0.370 10000.000 0.000 0.989
5 15.00 1500.06 216 771 0.370 10000.000 0.000 0.989
6 18.00 1500.06 200 770 0.370 10000.000 0.000 0.989
7 21.00 1500.06 230 721 0.370 10000.000 0.000 0.989
8 24.00 1500.06 194 714 0.370 10000.000 0.000 0.989
9 27.00 1500.06 190 731 0.370 10000.000 0.000 0.989
10 30.00 1500.06 194 732 0.370 10000.000 0.000 0.989
11 33.00 1500.06 198 710 0.370 10000.000 0.000 0.989
12 36.00 1500.06 184 713 0.370 10000.000 0.000 0.989
13 39.00 1500.06 205 683 0.370 10000.000 0.000 0.989
14 42.00 1500.06 176 729 0.370 10000.000 0.000 0.989
15 45.00 1500.06 204 686 0.370 10000.000 0.000 0.989
16 48.00 1500.06 184 760 0.370 10000.000 0.000 0.989
17 51.00 1500.06 227 779 0.370 10000.000 0.000 0.989
18 54.00 1500.06 192 775 0.370 10000.000 0.000 0.989
19 57.00 1500.06 210 706 0.370 10000.000 0.000 0.989
20 60.00 1500.06 204 729 0.370 10000.000 0.000 0.989
21 63.00 1500.06 222 743 0.370 10000.000 0.000 0.989
22 66.00 1500.06 205 740 0.370 10000.000 0.000 0.989
23 69.00 1500.06 226 713 0.370 10000.000 0.000 0.989
24 72.00 1500.06 243 747 0.370 10000.000 0.000 0.989
25 75.00 1500.06 242 757 0.370 10000.000 0.000 0.989
26 78.00 1500.06 254 672 0.370 10000.000 0.000 0.989
27 81.00 1500.06 245 688 0.370 10000.000 0.000 0.989
28 84.00 1500.06 234 686 0.370 10000.000 0.000 0.989
29 87.00 1500.06 243 613 0.370 10000.000 0.000 0.989
30 90.00 1500.06 255 580 0.370 10000.000 0.000 0.989
31 93.00 1500.06 228 621 0.370 10000.000 0.000 0.989
32 96.00 1500.06 220 590 0.370 10000.000 0.000 0.989
33 99.00 1500.06 235 607 0.370 10000.000 0.000 0.989
34 102.00 1500.06 216 644 0.370 10000.000 0.000 0.989
35 105.00 1500.06 224 615 0.370 10000.000 0.000 0.989
36 108.00 1500.06 222 689 0.370 10000.000 0.000 0.989
37 111.00 1500.06 213 629 0.370 10000.000 0.000 0.989
38 114.00 1500.06 196 610 0.370 10000.000 0.000 0.989
39 117.00 1500.06 186 644 0.370 10000.000 0.000 0.989
40 120.00 1500.06 195 668 0.370 10000.000 0.000 0.989
41 123.00 1500.06 185 695 0.370 10000.000 0.000 0.989
42 126.00 1500.06 190 768 0.370 10000.000 0.000 0.989
43 129.00 1500.06 201 748 0.370 10000.000 0.000 0.989
44 132.00 1500.06 167 710 0.370 10000.000 0.000 0.989
45 135.00 1500.06 172 779 0.370 10000.000 0.000 0.989
46 138.00 1500.06 200 802 0.370 10000.000 0.000 0.989
47 141.00 1500.06 189 783 0.370 10000.000 0.000 0.989
48 144.00 1500.06 207 816 0.370 10000.000 0.000 0.989
49 147.00 1500.06 207 784 0.370 10000.000 0.000 0.989
50 150.00 1500.06 191 798 0.370 10000.000 0.000 0.989
51 153.00 1500.06 190 813 0.370 10000.000 0.000 0.989
52 156.00 1500.06 222 782 0.370 10000.000 0.000 0.989
53 159.00 1500.06 194 772 0.370 10000.000 0.000 0.989
54 162.00 1500.06 230 807 0.370 10000.000 0.000 0.989
55 165.00 1500.06 219 741 0.370 10000.000 0.000 0.989
56 168.00 1500.06 206 767 0.370 10000.000 0.000 0.989
57 171.00 1500.06 233 683 0.370 10000.000 0.000 0.989
58 174.00 1500.06 270 694 0.370 10000.000 0.000 0.989
59 177.00 1500.06 236 698 0.370 10000.000 0.000 0.989
60 180.00 1500.06 262 667 0.370 10000.000 0.000 0.989
61 183.00 1500.06 230 663 0.370 10000.000 0.000 0.989
62 186.00 1500.06 249 617 0.370 10000.000 0.000 0.989
63 189.00 1500.06 216 659 0.370 10000.000 0.000 0.989
64 192.00 1500.06 240 655 0.370 10000.000 0.000 0.989
65 195.00 1500.06 244 626 0.370 10000.000 0.000 0.989
66 198.00 1500.06 225 588 0.370 10000.000 0.000 0.989
67 201.00 1500.06 235 603 0.370 10000.000 0.000 0.989
68 204.00 1500.06 221 617 0.370 10000.000 0.000 0.989
69 207.00 1500.06 219 642 0.370 10000.000 0.000 0.989
70 210.00 1500.06 219 678 0.370 10000.000 0.000 0.989
71 213.00 1500.06 221 669 0.370 10000.000 0.000 0.989
72 216.00 1500.06 213 684 0.370 10000.000 0.000 0.989
73 219.00 1500.06 213 709 0.370 10000.000 0.000 0.989
74 222.00 1500.06 201 740 0.370 10000.000 0.000 0.989
75 225.00 1500.06 185 705 0.370 10000.000 0.000 0.989
76 228.00 1500.06 189 756 0.370 10000.000 0.000 0.989
77 231.00 1500.06 178 758 0.370 10000.000 0.000 0.989
78 234.00 1500.06 209 802 0.370 10000.000 0.000 0.989
79 237.00 1500.06 190 818 0.370 10000.000 0.000 0.989
80 240.00 1500.06 189 800 0.370 10000.000 0.000 0.989
81 243.00 1500.06 198 764 0.370 10000.000 0.000 0.989
82 246.00 1500.06 201 848 0.370 10000.000 0.000 0.989
83 249.00 1500.06 188 784 0.370 10000.000 0.000 0.989
84 252.00 1500.06 198 797 0.370 10000.000 0.000 0.989
85 255.00 1500.06 214 754 0.370 10000.000 0.000 0.989
86 258.00 1500.06 213 747 0.370 10000.000 0.000 0.989
87 261.00 1500.06 201 785 0.370 10000.000 0.000 0.989
88 264.00 1500.06 228 796 0.370 10000.000 0.000 0.989
89 267.00 1500.06 249 754 0.370 10000.000 0.000 0.989
90 270.00 1500.06 214 690 0.370 10000.000 0.000 0.989
91 273.00 1500.06 195 657 0.370 10000.000 0.000 0.989
92 276.00 1500.06 242 731 0.370 10000.000 0.000 0.989
93 279.00 1500.06 228 673 0.370 10000.000 0.000 0.989
94 282.00 1500.06 227 643 0.370 10000.000 0.000 0.989
95 285.00 1500.06 251 599 0.370 10000.000 0.000 0.989
96 288.00 1500.06 231 658 0.370 10000.000 0.000 0.989
97 291.00 1500.06 216 618 0.370 10000.000 0.000 0.989
98 294.00 1500.06 228 631 0.370 10000.000 0.000 0.989
99 297.00 1500.06 202 601 0.370 10000.000 0.000 0.989
100 300.00 1500.06 214 655 0.370 10000.000 0.000 0.989
101 303.00 1500.06 226 588 0.370 10000.000 0.000 0.989
102 306.00 1500.06 240 605 0.370 10000.000 0.000 0.989
103 309.00 1500.06 202 585 0.370 10000.000 0.000 0.989
104 312.00 1500.06 225 666 0.370 10000.000 0.000 0.989
105 315.00 1500.06 244 677 0.370 10000.000 0.000 0.989
106 318.00 1500.06 186 692 0.370 10000.000 0.000 0.989
107 321.00 1500.06 210 663 0.370 10000.000 0.000 0.989
108 324.00 1500.06 191 672 0.370 10000.000 0.000 0.989
109 327.00 1500.06 212 739 0.370 10000.000 0.000 0.989
110 330.00 1500.06 226 748 0.370 10000.000 0.000 0.989
111 333.00 1500.06 235 732 0.370 10000.000 0.000 0.989
112 336.00 1500.06 219 748 0.370 10000.000 0.000 0.989
113 339.00 1500.06 243 808 0.370 10000.000 0.000 0.989
114 342.00 1500.06 220 709 0.370 10000.000 0.000 0.989
115 345.00 1500.06 209 760 0.370 10000.000 0.000 0.989
116 348.00 1500.06 215 814 0.370 10000.000 0.000 0.989
117 351.00 1500.06 197 811 0.370 10000.000 0.000 0.989
118 354.00 1500.06 191 815 0.370 10000.000 0.000 0.989
119 357.00 1500.06 187 788 0.370 10000.000 0.000 0.989
120 360.00 1500.06 195 762 0.370 10000.000 0.000 0.989
121 363.00 1500.06 199 769 0.370 10000.000 0.000 0.989
122 366.00 1500.06 158 784 0.370 10000.000 0.000 0.989
123 369.00 1500.06 174 732 0.370 10000.000 0.000 0.989
124 372.00 1500.06 182 685 0.370 10000.000 0.000 0.989
125 375.00 1500.06 177 727 0.370 10000.000 0.000 0.989
126 378.00 1500.06 218 696 0.370 10000.000 0.000 0.989
127 381.00 1500.06 179 669 0.370 10000.000 0.000 0.989
128 384.00 1500.06 195 659 0.370 10000.000 0.000 0.989
129 387.00 1500.06 207 665 0.370 10000.000 0.000 0.989
130 390.00 1500.06 197 615 0.370 10000.000 0.000 0.989
131 393.00 1500.06 209 589 0.370 10000.000 0.000 0.989
132 396.00 1500.06 231 657 0.370 10000.000 0.000 0.989
133 399.00 1500.06 200 648 0.370 10000.000 0.000 0.989
134 402.00 1500.06 218 670 0.370 10000.000 0.000 0.989
135 405.00 1500.06 233 630 0.370 10000.000 0.000 0.989
136 408.00 1500.06 228 642 0.370 10000.000 0.000 0.989
137 411.00 1500.06 233 611 0.370 10000.000 0.000 0.989
138 414.00 1500.06 270 711 0.370 10000.000 0.000 0.989
139 417.00 1500.06 227 693 0.370 10000.000 0.000 0.989
140 420.00 1500.06 230 710 0.370 10000.000 0.000 0.989
141 423.00 1500.06 228 728 0.370 10000.000 0.000 0.989
142 426.00 1500.06 242 713 0.370 10000.000 0.000 0.989
143 429.00 1500.06 244 726 0.370 10000.000 0.000 0.989
144 432.00 1500.06 217 776 0.370 10000.000 0.000 0.989
