# BinNR microsec tot-time (s)  O-Beam AUX Ampl(V) f(Hz) phase(deg) chi(pos)
0 0.00 1500.00 205 544 0.370 10000.000 0.000 1.318
1 3.00 1500.00 381 1200 0.370 10000.000 0.000 1.318
2 6.00 1500.00 393 1221 0.370 10000.000 0.000 1.318
3 9.00 1500.00 370 1171 0.370 10000.000 0.000 1.318
4 12.00 1500.00 373 1235 0.370 10000.000 0.000 1.318
5 15.00 1500.00 379 1184 0.370 10000.000 0.000 1.318
6 18.00 1500.00 343 1232 0.370 10000.000 0.000 1.318
7 21.00 1500.00 317 1140 0.370 10000.000 0.000 1.318
8 24.00 1500.00 339 1190 0.370 10000.000 0.000 1.318
9 27.00 1500.00 332 1118 0.370 10000.000 0.000 1.318
10 30.00 1500.00 360 1193 0.370 10000.000 0.000 1.318
11 33.00 1500.00 389 1132 0.370 10000.000 0.000 1.318
12 36.00 1500.00 361 1155 0.370 10000.000 0.000 1.318
13 39.00 1500.00 288 1146 0.370 10000.000 0.000 1.318
14 42.00 1500.00 365 1179 0.370 10000.000 0.000 1.318
15 45.00 1500.00 352 1152 0.370 10000.000 0.000 1.318
16 48.00 1500.00 347 1210 0.370 10000.000 0.000 1.318
17 51.00 1500.00 357 1183 0.370 10000.000 0.000 1.318
18 54.00 1500.00 365 1269 0.370 10000.000 0.000 1.318
19 57.00 1500.00 377 1142 0.370 10000.000 0.000 1.318
20 60.00 1500.00 390 1257 0.370 10000.000 0.000 1.318
21 63.00 1500.00 432 1159 0.370 10000.000 0.000 1.318
22 66.00 1500.00 368 1197 0.370 10000.000 0.000 1.318
23 69.00 1500.00 387 1154 0.370 10000.000 0.000 1.318
24 72.00 1500.00 403 1202 0.370 10000.000 0.000 1.318
25 75.00 1500.00 344 1131 0.370 10000.000 0.000 1.318
26 78.00 1500.00 397 1157 0.370 10000.000 0.000 1.318
27 81.00 1500.00 364 1157 0.370 10000.000 0.000 1.318
28 84.00 1500.00 413 1188 0.370 10000.000 0.000 1.318
29 87.00 1500.00 436 1094 0.370 10000.000 0.000 1.318
30 90.00 1500.00 392 1202 0.370 10000.000 0.000 1.318
31 93.00 1500.00 377 1115 0.370 10000.000 0.000 1.318
32 96.00 1500.00 377 1111 0.370 10000.000 0.000 1.318
33 99.00 1500.00 398 1149 0.370 10000.000 0.000 1.318
34 102.00 1500.00 351 1122 0.370 10000.000 0.000 1.318
35 105.00 1500.00 348 1134 0.370 10000.000 0.000 1.318
36 108.00 1500.00 399 1141 0.370 10000.000 0.000 1.318
37 111.00 1500.00 372 1156 0.370 10000.000 0.000 1.318
38 114.00 1500.00 354 1161 0.370 10000.000 0.000 1.318
39 117.00 1500.00 358 1155 0.370 10000.000 0.000 1.318
40 120.00 1500.00 359 1228 0.370 10000.000 0.000 1.318
41 123.00 1500.00 378 1165 0.370 10000.000 0.000 1.318
42 126.00 1500.00 345 1209 0.370 10000.000 0.000 1.318
43 129.00 1500.00 354 1189 0.370 10000.000 0.000 1.318
44 132.00 1500.00 301 1224 0.370 10000.000 0.000 1.318
45 135.00 1500.00 325 1168 0.370 10000.000 0.000 1.318
46 138.00 1500.00 362 1191 0.370 10000.000 0.000 1.318
47 141.00 1500.00 359 1208 0.370 10000.000 0.000 1.318
48 144.00 1500.00 352 1218 0.370 10000.000 0.000 1.318
49 147.00 1500.00 342 1287 0.370 10000.000 0.000 1.318
50 150.00 1500.00 345 1221 0.370 10000.000 0.000 1.318
51 153.00 1500.00 381 1271 0.370 10000.000 0.000 1.318
52 156.00 1500.00 384 1202 0.370 10000.000 0.000 1.318
53 159.00 1500.00 350 1197 0.370 10000.000 0.000 1.318
54 162.00 1500.00 367 1217 0.370 10000.000 0.000 1.318
55 165.00 1500.00 348 1143 0.370 10000.000 0.000 1.318
56 168.00 1500.00 378 1250 0.370 10000.000 0.000 1.318
57 171.00 1500.00 386 1200 0.370 10000.000 0.000 1.318
58 174.00 1500.00 387 1130 0.370 10000.000 0.000 1.318
59 177.00 1500.00 415 1110 0.370 10000.000 0.000 1.318
60 180.00 1500.00 432 1214 0.370 10000.000 0.000 1.318
61 183.00 1500.00 415 1178 0.370 10000.000 0.000 1.318
62 186.00 1500.00 405 1156 0.370 10000.000 0.000 1.318
63 189.00 1500.00 359 1097 0.370 10000.000 0.000 1.318
64 192.00 1500.00 397 1172 0.370 10000.000 0.000 1.318
65 195.00 1500.00 379 1092 0.370 10000.000 0.000 1.318
66 198.00 1500.00 391 1115 0.370 10000.000 0.000 1.318
67 201.00 1500.00 369 1119 0.370 10000.000 0.000 1.318
68 204.00 1500.00 419 1107 0.370 10000.000 0.000 1.318
69 207.00 1500.00 378 1079 0.370 10000.000 0.000 1.318
70 210.00 1500.00 386 1149 0.370 10000.000 0.000 1.318
71 213.00 1500.00 356 1145 0.370 10000.000 0.000 1.318
72 216.00 1500.00 375 1142 0.370 10000.000 0.000 1.318
73 219.00 1500.00 346 1208 0.370 10000.000 0.000 1.318
74 222.00 1500.00 378 1218 0.370 10000.000 0.000 1.318
75 225.00 1500.00 356 1193 0.370 10000.000 0.000 1.318
76 228.00 1500.00 336 1224 0.370 10000.000 0.000 1.318
77 231.00 1500.00 323 1205 0.370 10000.000 0.000 1.318
78 234.00 1500.00 360 1180 0.370 10000.000 0.000 1.318
79 237.00 1500.00 317 1225 0.370 10000.000 0.000 1.318
80 240.00 1500.00 369 1308 0.370 10000.000 0.000 1.318
81 243.00 1500.00 341 1220 0.370 10000.000 0.000 1.318
82 246.00 1500.00 350 1195 0.370 10000.000 0.000 1.318
83 249.00 1500.00 374 1147 0.370 10000.000 0.000 1.318
84 252.00 1500.00 365 1228 0.370 10000.000 0.000 1.318
85 255.00 1500.00 324 1227 0.370 10000.000 0.000 1.318
86 258.00 1500.00 381 1191 0.370 10000.000 0.000 1.318
87 261.00 1500.00 355 1167 0.370 10000.000 0.000 1.318
88 264.00 1500.00 391 1188 0.370 10000.000 0.000 1.318
89 267.00 1500.00 386 1150 0.370 10000.000 0.000 1.318
90 270.00 1500.00 401 1243 0.370 10000.000 0.000 1.318
91 273.00 1500.00 374 1162 0.370 10000.000 0.000 1.318
92 276.00 1500.00 411 1162 0.370 10000.000 0.000 1.318
93 279.00 1500.00 405 1208 0.370 10000.000 0.000 1.318
94 282.00 1500.00 355 1155 0.370 10000.000 0.000 1.318
95 285.00 1500.00 394 1096 0.370 10000.000 0.000 1.318
96 288.00 1500.00 409 1171 0.370 10000.000 0.000 1.318
97 291.00 1500.00 380 1088 0.370 10000.000 0.000 1.318
98 294.00 1500.00 383 1069 0.370 10000.000 0.000 1.318
99 297.00 1500.00 381 1141 0.370 10000.000 0.000 1.318
100 300.00 1500.00 375 1095 0.370 10000.000 0.000 1.318
101 303.00 1500.00 412 1067 0.370 10000.000 0.000 1.318
102 306.00 1500.00 394 1132 0.370 10000.000 0.000 1.318
103 309.00 1500.00 354 1101 0.370 10000.000 0.000 1.318
104 312.00 1500.00 409 1127 0.370 10000.000 0.000 1.318
105 315.00 1500.00 354 1122 0.370 10000.000 0.000 1.318
106 318.00 1500.00 397 1228 0.370 10000.000 0.000 1.318
107 321.00 1500.00 410 1136 0.370 10000.000 0.000 1.318
108 324.00 1500.00 369 1159 0.370 10000.000 0.000 1.318
109 327.00 1500.00 371 1156 0.370 10000.000 0.000 1.318
110 330.00 1500.00 426 1245 0.370 10000.000 0.000 1.318
111 333.00 1500.00 374 1211 0.370 10000.000 0.000 1.318
112 336.00 1500.00 414 1240 0.370 10000.000 0.000 1.318
113 339.00 1500.00 373 1189 0.370 10000.000 0.000 1.318
114 342.00 1500.00 354 1216 0.370 10000.000 0.000 1.318
115 345.00 1500.00 369 1227 0.370 10000.000 0.000 1.318
116 348.00 1500.00 382 1199 0.370 10000.000 0.000 1.318
117 351.00 1500.00 374 1233 0.370 10000.000 0.000 1.318
118 354.00 1500.00 350 1243 0.370 10000.000 0.000 1.318
119 357.00 1500.00 373 1233 0.370 10000.000 0.000 1.318
120 360.00 1500.00 365 1222 0.370 10000.000 0.000 1.318
121 363.00 1500.00 337 1241 0.370 10000.000 0.000 1.318
122 366.00 1500.00 352 1186 0.370 10000.000 0.000 1.318
123 369.00 1500.00 347 1164 0.370 10000.000 0.000 1.318
124 372.00 1500.00 362 1226 0.370 10000.000 0.000 1.318
125 375.00 1500.00 339 1194 0.370 10000.000 0.000 1.318
126 378.00 1500.00 358 1218 0.370 10000.000 0.000 1.318
127 381.00 1500.00 335 1126 0.370 10000.000 0.000 1.318
128 384.00 1500.00 362 1142 0.370 10000.000 0.000 1.318
129 387.00 1500.00 331 1113 0.370 10000.000 0.000 1.318
130 390.00 1500.00 371 1119 0.370 10000.000 0.000 1.318
131 393.00 1500.00 346 1153 0.370 10000.000 0.000 1.318
132 396.00 1500.00 418 1086 0.370 10000.000 0.000 1.318
133 399.00 1500.00 383 1105 0.370 10000.000 0.000 1.318
134 402.00 1500.00 395 1126 0.370 10000.000 0.000 1.318
135 405.00 1500.00 388 1085 0.370 10000.000 0.000 1.318
136 408.00 1500.00 358 1157 0.370 10000.000 0.000 1.318
137 411.00 1500.00 378 1199 0.370 10000.000 0.000 1.318
138 414.00 1500.00 403 1138 0.370 10000.000 0.000 1.318
139 417.00 1500.00 374 1165 0.370 10000.000 0.000 1.318
140 420.00 1500.00 390 1202 0.370 10000.000 0.000 1.318
141 423.00 1500.00 385 1164 0.370 10000.000 0.000 1.318
142 426.00 1500.00 421 1178 0.370 10000.000 0.000 1.318
143 429.00 1500.00 396 1197 0.370 10000.000 0.000 1.318
144 432.00 1500.00 411 1175 0.370 10000.000 0.000 1.318
