# BinNR microsec tot-time (s)  O-Beam AUX Ampl(V) f(Hz) phase(deg) chi(pos)
0 0.00 1500.02 106 159 0.370 10000.000 0.000 0.165
1 3.00 1500.02 193 306 0.370 10000.000 0.000 0.165
2 6.00 1500.02 213 305 0.370 10000.000 0.000 0.165
3 9.00 1500.02 230 294 0.370 10000.000 0.000 0.165
4 12.00 1500.02 227 302 0.370 10000.000 0.000 0.165
5 15.00 1500.02 217 332 0.370 10000.000 0.000 0.165
6 18.00 1500.02 239 356 0.370 10000.000 0.000 0.165
7 21.00 1500.02 243 323 0.370 10000.000 0.000 0.165
8 24.00 1500.02 249 337 0.370 10000.000 0.000 0.165
9 27.00 1500.02 264 370 0.370 10000.000 0.000 0.165
10 30.00 1500.02 239 370 0.370 10000.000 0.000 0.165
11 33.00 1500.02 250 325 0.370 10000.000 0.000 0.165
12 36.00 1500.02 232 331 0.370 10000.000 0.000 0.165
13 39.00 1500.02 242 348 0.370 10000.000 0.000 0.165
14 42.00 1500.02 256 407 0.370 10000.000 0.000 0.165
15 45.00 1500.02 256 318 0.370 10000.000 0.000 0.165
16 48.00 1500.02 259 314 0.370 10000.000 0.000 0.165
17 51.00 1500.02 234 339 0.370 10000.000 0.000 0.165
18 54.00 1500.02 231 296 0.370 10000.000 0.000 0.165
19 57.00 1500.02 251 300 0.370 10000.000 0.000 0.165
20 60.00 1500.02 242 308 0.370 10000.000 0.000 0.165
21 63.00 1500.02 191 309 0.370 10000.000 0.000 0.165
22 66.00 1500.02 209 328 0.370 10000.000 0.000 0.165
23 69.00 1500.02 223 315 0.370 10000.000 0.000 0.165
24 72.00 1500.02 211 347 0.370 10000.000 0.000 0.165
25 75.00 1500.02 183 367 0.370 10000.000 0.000 0.165
26 78.00 1500.02 200 363 0.370 10000.000 0.000 0.165
27 81.00 1500.02 212 413 0.370 10000.000 0.000 0.165
28 84.00 1500.02 220 425 0.370 10000.000 0.000 0.165
29 87.00 1500.02 202 391 0.370 10000.000 0.000 0.165
30 90.00 1500.02 233 384 0.370 10000.000 0.000 0.165
31 93.00 1500.02 194 426 0.370 10000.000 0.000 0.165
32 96.00 1500.02 220 442 0.370 10000.000 0.000 0.165
33 99.00 1500.02 209 436 0.370 10000.000 0.000 0.165
34 102.00 1500.02 208 435 0.370 10000.000 0.000 0.165
35 105.00 1500.02 185 450 0.370 10000.000 0.000 0.165
36 108.00 1500.02 222 421 0.370 10000.000 0.000 0.165
37 111.00 1500.02 207 409 0.370 10000.000 0.000 0.165
38 114.00 1500.02 222 400 0.370 10000.000 0.000 0.165
39 117.00 1500.02 223 418 0.370 10000.000 0.000 0.165
40 120.00 1500.02 248 393 0.370 10000.000 0.000 0.165
41 123.00 1500.02 257 355 0.370 10000.000 0.000 0.165
42 126.00 1500.02 252 338 0.370 10000.000 0.000 0.165
43 129.00 1500.02 294 323 0.370 10000.000 0.000 0.165
44 132.00 1500.02 250 302 0.370 10000.000 0.000 0.165
45 135.00 1500.02 242 337 0.370 10000.000 0.000 0.165
46 138.00 1500.02 278 345 0.370 10000.000 0.000 0.165
47 141.00 1500.02 249 295 0.370 10000.000 0.000 0.165
48 144.00 1500.02 262 279 0.370 10000.000 0.000 0.165
49 147.00 1500.02 230 265 0.370 10000.000 0.000 0.165
50 150.00 1500.02 224 297 0.370 10000.000 0.000 0.165
51 153.00 1500.02 244 286 0.370 10000.000 0.000 0.165
52 156.00 1500.02 226 280 0.370 10000.000 0.000 0.165
53 159.00 1500.02 212 265 0.370 10000.000 0.000 0.165
54 162.00 1500.02 224 327 0.370 10000.000 0.000 0.165
55 165.00 1500.02 223 357 0.370 10000.000 0.000 0.165
56 168.00 1500.02 191 329 0.370 10000.000 0.000 0.165
57 171.00 1500.02 228 345 0.370 10000.000 0.000 0.165
58 174.00 1500.02 199 387 0.370 10000.000 0.000 0.165
59 177.00 1500.02 231 397 0.370 10000.000 0.000 0.165
60 180.00 1500.02 194 399 0.370 10000.000 0.000 0.165
61 183.00 1500.02 177 426 0.370 10000.000 0.000 0.165
62 186.00 1500.02 195 433 0.370 10000.000 0.000 0.165
63 189.00 1500.02 190 417 0.370 10000.000 0.000 0.165
64 192.00 1500.02 204 422 0.370 10000.000 0.000 0.165
65 195.00 1500.02 217 438 0.370 10000.000 0.000 0.165
66 198.00 1500.02 192 414 0.370 10000.000 0.000 0.165
67 201.00 1500.02 202 454 0.370 10000.000 0.000 0.165
68 204.00 1500.02 211 454 0.370 10000.000 0.000 0.165
69 207.00 1500.02 195 398 0.370 10000.000 0.000 0.165
70 210.00 1500.02 229 436 0.370 10000.000 0.000 0.165
71 213.00 1500.02 203 382 0.370 10000.000 0.000 0.165
72 216.00 1500.02 216 407 0.370 10000.000 0.000 0.165
73 219.00 1500.02 223 351 0.370 10000.000 0.000 0.165
74 222.00 1500.02 244 364 0.370 10000.000 0.000 0.165
75 225.00 1500.02 233 356 0.370 10000.000 0.000 0.165
76 228.00 1500.02 266 345 0.370 10000.000 0.000 0.165
77 231.00 1500.02 212 317 0.370 10000.000 0.000 0.165
78 234.00 1500.02 264 315 0.370 10000.000 0.000 0.165
79 237.00 1500.02 229 291 0.370 10000.000 0.000 0.165
80 240.00 1500.02 273 279 0.370 10000.000 0.000 0.165
81 243.00 1500.02 241 302 0.370 10000.000 0.000 0.165
82 246.00 1500.02 237 319 0.370 10000.000 0.000 0.165
83 249.00 1500.02 265 276 0.370 10000.000 0.000 0.165
84 252.00 1500.02 229 306 0.370 10000.000 0.000 0.165
85 255.00 1500.02 208 313 0.370 10000.000 0.000 0.165
86 258.00 1500.02 232 284 0.370 10000.000 0.000 0.165
87 261.00 1500.02 224 264 0.370 10000.000 0.000 0.165
88 264.00 1500.02 229 338 0.370 10000.000 0.000 0.165
89 267.00 1500.02 230 324 0.370 10000.000 0.000 0.165
90 270.00 1500.02 195 378 0.370 10000.000 0.000 0.165
91 273.00 1500.02 206 324 0.370 10000.000 0.000 0.165
92 276.00 1500.02 221 361 0.370 10000.000 0.000 0.165
93 279.00 1500.02 191 386 0.370 10000.000 0.000 0.165
94 282.00 1500.02 220 397 0.370 10000.000 0.000 0.165
95 285.00 1500.02 213 408 0.370 10000.000 0.000 0.165
96 288.00 1500.02 194 413 0.370 10000.000 0.000 0.165
97 291.00 1500.02 224 368 0.370 10000.000 0.000 0.165
98 294.00 1500.02 222 465 0.370 10000.000 0.000 0.165
99 297.00 1500.02 205 448 0.370 10000.000 0.000 0.165
100 300.00 1500.02 198 385 0.370 10000.000 0.000 0.165
101 303.00 1500.02 218 421 0.370 10000.000 0.000 0.165
102 306.00 1500.02 235 453 0.370 10000.000 0.000 0.165
103 309.00 1500.02 211 399 0.370 10000.000 0.000 0.165
104 312.00 1500.02 225 434 0.370 10000.000 0.000 0.165
105 315.00 1500.02 217 395 0.370 10000.000 0.000 0.165
106 318.00 1500.02 228 419 0.370 10000.000 0.000 0.165
107 321.00 1500.02 231 350 0.370 10000.000 0.000 0.165
108 324.00 1500.02 222 369 0.370 10000.000 0.000 0.165
109 327.00 1500.02 201 333 0.370 10000.000 0.000 0.165
110 330.00 1500.02 217 319 0.370 10000.000 0.000 0.165
111 333.00 1500.02 216 346 0.370 10000.000 0.000 0.165
112 336.00 1500.02 214 278 0.370 10000.000 0.000 0.165
113 339.00 1500.02 213 328 0.370 10000.000 0.000 0.165
114 342.00 1500.02 218 305 0.370 10000.000 0.000 0.165
115 345.00 1500.02 197 277 0.370 10000.000 0.000 0.165
116 348.00 1500.02 227 290 0.370 10000.000 0.000 0.165
117 351.00 1500.02 225 280 0.370 10000.000 0.000 0.165
118 354.00 1500.02 254 282 0.370 10000.000 0.000 0.165
119 357.00 1500.02 221 278 0.370 10000.000 0.000 0.165
120 360.00 1500.02 275 350 0.370 10000.000 0.000 0.165
121 363.00 1500.02 237 291 0.370 10000.000 0.000 0.165
122 366.00 1500.02 260 345 0.370 10000.000 0.000 0.165
123 369.00 1500.02 225 359 0.370 10000.000 0.000 0.165
124 372.00 1500.02 266 374 0.370 10000.000 0.000 0.165
125 375.00 1500.02 271 386 0.370 10000.000 0.000 0.165
126 378.00 1500.02 237 380 0.370 10000.000 0.000 0.165
127 381.00 1500.02 209 386 0.370 10000.000 0.000 0.165
128 384.00 1500.02 237 448 0.370 10000.000 0.000 0.165
129 387.00 1500.02 246 421 0.370 10000.000 0.000 0.165
130 390.00 1500.02 214 438 0.370 10000.000 0.000 0.165
131 393.00 1500.02 215 441 0.370 10000.000 0.000 0.165
132 396.00 1500.02 240 453 0.370 10000.000 0.000 0.165
133 399.00 1500.02 213 375 0.370 10000.000 0.000 0.165
134 402.00 1500.02 210 452 0.370 10000.000 0.000 0.165
135 405.00 1500.02 202 459 0.370 10000.000 0.000 0.165
136 408.00 1500.02 223 405 0.370 10000.000 0.000 0.165
137 411.00 1500.02 206 394 0.370 10000.000 0.000 0.165
138 414.00 1500.02 207 400 0.370 10000.000 0.000 0.165
139 417.00 1500.02 220 381 0.370 10000.000 0.000 0.165
140 420.00 1500.02 210 391 0.370 10000.000 0.000 0.165
141 423.00 1500.02 186 392 0.370 10000.000 0.000 0.165
142 426.00 1500.02 204 336 0.370 10000.000 0.000 0.165
143 429.00 1500.02 210 313 0.370 10000.000 0.000 0.165
144 432.00 1500.02 215 312 0.370 10000.000 0.000 0.165
