# BinNR microsec tot-time (s)  O-Beam AUX Ampl(V) f(Hz) phase(deg) chi(pos)
0 0.00 1500.03 108 321 0.370 10000.000 0.000 -1.165
1 3.00 1500.03 196 655 0.370 10000.000 0.000 -1.165
2 6.00 1500.03 173 662 0.370 10000.000 0.000 -1.165
3 9.00 1500.03 181 629 0.370 10000.000 0.000 -1.165
4 12.00 1500.03 174 630 0.370 10000.000 0.000 -1.165
5 15.00 1500.03 178 657 0.370 10000.000 0.000 -1.165
6 18.00 1500.03 163 638 0.370 10000.000 0.000 -1.165
7 21.00 1500.03 164 631 0.370 10000.000 0.000 -1.165
8 24.00 1500.03 176 631 0.370 10000.000 0.000 -1.165
9 27.00 1500.03 157 578 0.370 10000.000 0.000 -1.165
10 30.00 1500.03 165 639 0.370 10000.000 0.000 -1.165
11 33.00 1500.03 161 574 0.370 10000.000 0.000 -1.165
12 36.00 1500.03 157 583 0.370 10000.000 0.000 -1.165
13 39.00 1500.03 159 589 0.370 10000.000 0.000 -1.165
14 42.00 1500.03 173 667 0.370 10000.000 0.000 -1.165
15 45.00 1500.03 135 597 0.370 10000.000 0.000 -1.165
16 48.00 1500.03 157 628 0.370 10000.000 0.000 -1.165
17 51.00 1500.03 146 665 0.370 10000.000 0.000 -1.165
18 54.00 1500.03 192 679 0.370 10000.000 0.000 -1.165
19 57.00 1500.03 174 647 0.370 10000.000 0.000 -1.165
20 60.00 1500.03 187 685 0.370 10000.000 0.000 -1.165
21 63.00 1500.03 185 620 0.370 10000.000 0.000 -1.165
22 66.00 1500.03 182 621 0.370 10000.000 0.000 -1.165
23 69.00 1500.03 176 623 0.370 10000.000 0.000 -1.165
24 72.00 1500.03 215 631 0.370 10000.000 0.000 -1.165
25 75.00 1500.03 193 576 0.370 10000.000 0.000 -1.165
26 78.00 1500.03 193 572 0.370 10000.000 0.000 -1.165
27 81.00 1500.03 194 569 0.370 10000.000 0.000 -1.165
28 84.00 1500.03 226 553 0.370 10000.000 0.000 -1.165
29 87.00 1500.03 213 563 0.370 10000.000 0.000 -1.165
30 90.00 1500.03 210 564 0.370 10000.000 0.000 -1.165
31 93.00 1500.03 200 517 0.370 10000.000 0.000 -1.165
32 96.00 1500.03 203 499 0.370 10000.000 0.000 -1.165
33 99.00 1500.03 178 544 0.370 10000.000 0.000 -1.165
34 102.00 1500.03 187 513 0.370 10000.000 0.000 -1.165
35 105.00 1500.03 211 525 0.370 10000.000 0.000 -1.165
36 108.00 1500.03 164 559 0.370 10000.000 0.000 -1.165
37 111.00 1500.03 177 505 0.370 10000.000 0.000 -1.165
38 114.00 1500.03 164 544 0.370 10000.000 0.000 -1.165
39 117.00 1500.03 153 546 0.370 10000.000 0.000 -1.165
40 120.00 1500.03 175 601 0.370 10000.000 0.000 -1.165
41 123.00 1500.03 158 582 0.370 10000.000 0.000 -1.165
42 126.00 1500.03 173 677 0.370 10000.000 0.000 -1.165
43 129.00 1500.03 154 619 0.370 10000.000 0.000 -1.165
44 132.00 1500.03 169 665 0.370 10000.000 0.000 -1.165
45 135.00 1500.03 151 628 0.370 10000.000 0.000 -1.165
46 138.00 1500.03 156 648 0.370 10000.000 0.000 -1.165
47 141.00 1500.03 152 677 0.370 10000.000 0.000 -1.165
48 144.00 1500.03 166 725 0.370 10000.000 0.000 -1.165
49 147.00 1500.03 175 679 0.370 10000.000 0.000 -1.165
50 150.00 1500.03 162 711 0.370 10000.000 0.000 -1.165
51 153.00 1500.03 171 683 0.370 10000.000 0.000 -1.165
52 156.00 1500.03 187 684 0.370 10000.000 0.000 -1.165
53 159.00 1500.03 179 645 0.370 10000.000 0.000 -1.165
54 162.00 1500.03 169 664 0.370 10000.000 0.000 -1.165
55 165.00 1500.03 175 603 0.370 10000.000 0.000 -1.165
56 168.00 1500.03 192 639 0.370 10000.000 0.000 -1.165
57 171.00 1500.03 196 568 0.370 10000.000 0.000 -1.165
58 174.00 1500.03 178 609 0.370 10000.000 0.000 -1.165
59 177.00 1500.03 202 597 0.370 10000.000 0.000 -1.165
60 180.00 1500.03 207 539 0.370 10000.000 0.000 -1.165
61 183.00 1500.03 223 557 0.370 10000.000 0.000 -1.165
62 186.00 1500.03 202 540 0.370 10000.000 0.000 -1.165
63 189.00 1500.03 221 561 0.370 10000.000 0.000 -1.165
64 192.00 1500.03 213 534 0.370 10000.000 0.000 -1.165
65 195.00 1500.03 183 475 0.370 10000.000 0.000 -1.165
66 198.00 1500.03 175 517 0.370 10000.000 0.000 -1.165
67 201.00 1500.03 207 494 0.370 10000.000 0.000 -1.165
68 204.00 1500.03 184 511 0.370 10000.000 0.000 -1.165
69 207.00 1500.03 201 525 0.370 10000.000 0.000 -1.165
70 210.00 1500.03 177 519 0.370 10000.000 0.000 -1.165
71 213.00 1500.03 160 550 0.370 10000.000 0.000 -1.165
72 216.00 1500.03 166 544 0.370 10000.000 0.000 -1.165
73 219.00 1500.03 159 600 0.370 10000.000 0.000 -1.165
74 222.00 1500.03 188 616 0.370 10000.000 0.000 -1.165
75 225.00 1500.03 140 595 0.370 10000.000 0.000 -1.165
76 228.00 1500.03 157 618 0.370 10000.000 0.000 -1.165
77 231.00 1500.03 159 655 0.370 10000.000 0.000 -1.165
78 234.00 1500.03 159 626 0.370 10000.000 0.000 -1.165
79 237.00 1500.03 162 617 0.370 10000.000 0.000 -1.165
80 240.00 1500.03 170 694 0.370 10000.000 0.000 -1.165
81 243.00 1500.03 154 645 0.370 10000.000 0.000 -1.165
82 246.00 1500.03 176 759 0.370 10000.000 0.000 -1.165
83 249.00 1500.03 169 731 0.370 10000.000 0.000 -1.165
84 252.00 1500.03 182 708 0.370 10000.000 0.000 -1.165
85 255.00 1500.03 170 717 0.370 10000.000 0.000 -1.165
86 258.00 1500.03 179 652 0.370 10000.000 0.000 -1.165
87 261.00 1500.03 175 673 0.370 10000.000 0.000 -1.165
88 264.00 1500.03 177 654 0.370 10000.000 0.000 -1.165
89 267.00 1500.03 203 602 0.370 10000.000 0.000 -1.165
90 270.00 1500.03 239 635 0.370 10000.000 0.000 -1.165
91 273.00 1500.03 193 613 0.370 10000.000 0.000 -1.165
92 276.00 1500.03 190 585 0.370 10000.000 0.000 -1.165
93 279.00 1500.03 190 571 0.370 10000.000 0.000 -1.165
94 282.00 1500.03 207 602 0.370 10000.000 0.000 -1.165
95 285.00 1500.03 197 547 0.370 10000.000 0.000 -1.165
96 288.00 1500.03 197 532 0.370 10000.000 0.000 -1.165
97 291.00 1500.03 187 463 0.370 10000.000 0.000 -1.165
98 294.00 1500.03 163 506 0.370 10000.000 0.000 -1.165
99 297.00 1500.03 182 505 0.370 10000.000 0.000 -1.165
100 300.00 1500.03 194 527 0.370 10000.000 0.000 -1.165
101 303.00 1500.03 188 490 0.370 10000.000 0.000 -1.165
102 306.00 1500.03 200 498 0.370 10000.000 0.000 -1.165
103 309.00 1500.03 185 485 0.370 10000.000 0.000 -1.165
104 312.00 1500.03 173 543 0.370 10000.000 0.000 -1.165
105 315.00 1500.03 172 552 0.370 10000.000 0.000 -1.165
106 318.00 1500.03 206 575 0.370 10000.000 0.000 -1.165
107 321.00 1500.03 184 602 0.370 10000.000 0.000 -1.165
108 324.00 1500.03 215 580 0.370 10000.000 0.000 -1.165
109 327.00 1500.03 181 625 0.370 10000.000 0.000 -1.165
110 330.00 1500.03 208 568 0.370 10000.000 0.000 -1.165
111 333.00 1500.03 178 640 0.370 10000.000 0.000 -1.165
112 336.00 1500.03 197 653 0.370 10000.000 0.000 -1.165
113 339.00 1500.03 194 664 0.370 10000.000 0.000 -1.165
114 342.00 1500.03 166 692 0.370 10000.000 0.000 -1.165
115 345.00 1500.03 183 647 0.370 10000.000 0.000 -1.165
116 348.00 1500.03 183 717 0.370 10000.000 0.000 -1.165
117 351.00 1500.03 159 652 0.370 10000.000 0.000 -1.165
118 354.00 1500.03 175 683 0.370 10000.000 0.000 -1.165
119 357.00 1500.03 168 670 0.370 10000.000 0.000 -1.165
120 360.00 1500.03 151 666 0.370 10000.000 0.000 -1.165
121 363.00 1500.03 178 633 0.370 10000.000 0.000 -1.165
122 366.00 1500.03 153 674 0.370 10000.000 0.000 -1.165
123 369.00 1500.03 180 633 0.370 10000.000 0.000 -1.165
124 372.00 1500.03 152 608 0.370 10000.000 0.000 -1.165
125 375.00 1500.03 157 541 0.370 10000.000 0.000 -1.165
126 378.00 1500.03 182 548 0.370 10000.000 0.000 -1.165
127 381.00 1500.03 158 544 0.370 10000.000 0.000 -1.165
128 384.00 1500.03 196 518 0.370 10000.000 0.000 -1.165
129 387.00 1500.03 180 555 0.370 10000.000 0.000 -1.165
130 390.00 1500.03 168 531 0.370 10000.000 0.000 -1.165
131 393.00 1500.03 197 510 0.370 10000.000 0.000 -1.165
132 396.00 1500.03 179 547 0.370 10000.000 0.000 -1.165
133 399.00 1500.03 191 498 0.370 10000.000 0.000 -1.165
134 402.00 1500.03 202 531 0.370 10000.000 0.000 -1.165
135 405.00 1500.03 214 465 0.370 10000.000 0.000 -1.165
136 408.00 1500.03 219 502 0.370 10000.000 0.000 -1.165
137 411.00 1500.03 215 545 0.370 10000.000 0.000 -1.165
138 414.00 1500.03 216 543 0.370 10000.000 0.000 -1.165
139 417.00 1500.03 198 540 0.370 10000.000 0.000 -1.165
140 420.00 1500.03 197 588 0.370 10000.000 0.000 -1.165
141 423.00 1500.03 181 574 0.370 10000.000 0.000 -1.165
142 426.00 1500.03 202 649 0.370 10000.000 0.000 -1.165
143 429.00 1500.03 211 593 0.370 10000.000 0.000 -1.165
144 432.00 1500.03 198 608 0.370 10000.000 0.000 -1.165
