# BinNR microsec tot-time (s)  O-Beam AUX Ampl_1(V) f_1(Hz) phase_1(deg) Ampl_2(V) f_2(Hz) phase_2(deg) chi(pos)
0 0.00 1500.00 90 314 0.740 10000.000 0.000 0.610 15000.000 0.000 -1.329
1 3.00 1500.00 203 661 0.740 10000.000 0.000 0.610 15000.000 0.000 -1.329
2 6.00 1500.00 230 688 0.740 10000.000 0.000 0.610 15000.000 0.000 -1.329
3 9.00 1500.00 219 622 0.740 10000.000 0.000 0.610 15000.000 0.000 -1.329
4 12.00 1500.00 220 692 0.740 10000.000 0.000 0.610 15000.000 0.000 -1.329
5 15.00 1500.00 209 609 0.740 10000.000 0.000 0.610 15000.000 0.000 -1.329
6 18.00 1500.00 216 667 0.740 10000.000 0.000 0.610 15000.000 0.000 -1.329
7 21.00 1500.00 201 701 0.740 10000.000 0.000 0.610 15000.000 0.000 -1.329
8 24.00 1500.00 207 658 0.740 10000.000 0.000 0.610 15000.000 0.000 -1.329
9 27.00 1500.00 177 619 0.740 10000.000 0.000 0.610 15000.000 0.000 -1.329
10 30.00 1500.00 189 666 0.740 10000.000 0.000 0.610 15000.000 0.000 -1.329
11 33.00 1500.00 185 638 0.740 10000.000 0.000 0.610 15000.000 0.000 -1.329
12 36.00 1500.00 223 623 0.740 10000.000 0.000 0.610 15000.000 0.000 -1.329
13 39.00 1500.00 212 605 0.740 10000.000 0.000 0.610 15000.000 0.000 -1.329
14 42.00 1500.00 186 648 0.740 10000.000 0.000 0.610 15000.000 0.000 -1.329
15 45.00 1500.00 184 658 0.740 10000.000 0.000 0.610 15000.000 0.000 -1.329
16 48.00 1500.00 165 670 0.740 10000.000 0.000 0.610 15000.000 0.000 -1.329
17 51.00 1500.00 171 692 0.740 10000.000 0.000 0.610 15000.000 0.000 -1.329
18 54.00 1500.00 213 690 0.740 10000.000 0.000 0.610 15000.000 0.000 -1.329
19 57.00 1500.00 184 697 0.740 10000.000 0.000 0.610 15000.000 0.000 -1.329
20 60.00 1500.00 204 667 0.740 10000.000 0.000 0.610 15000.000 0.000 -1.329
21 63.00 1500.00 217 652 0.740 10000.000 0.000 0.610 15000.000 0.000 -1.329
22 66.00 1500.00 207 667 0.740 10000.000 0.000 0.610 15000.000 0.000 -1.329
23 69.00 1500.00 188 562 0.740 10000.000 0.000 0.610 15000.000 0.000 -1.329
24 72.00 1500.00 238 607 0.740 10000.000 0.000 0.610 15000.000 0.000 -1.329
25 75.00 1500.00 188 591 0.740 10000.000 0.000 0.610 15000.000 0.000 -1.329
26 78.00 1500.00 233 531 0.740 10000.000 0.000 0.610 15000.000 0.000 -1.329
27 81.00 1500.00 246 547 0.740 10000.000 0.000 0.610 15000.000 0.000 -1.329
28 84.00 1500.00 227 555 0.740 10000.000 0.000 0.610 15000.000 0.000 -1.329
29 87.00 1500.00 273 488 0.740 10000.000 0.000 0.610 15000.000 0.000 -1.329
30 90.00 1500.00 233 492 0.740 10000.000 0.000 0.610 15000.000 0.000 -1.329
31 93.00 1500.00 213 522 0.740 10000.000 0.000 0.610 15000.000 0.000 -1.329
32 96.00 1500.00 244 500 0.740 10000.000 0.000 0.610 15000.000 0.000 -1.329
33 99.00 1500.00 212 582 0.740 10000.000 0.000 0.610 15000.000 0.000 -1.329
34 102.00 1500.00 222 600 0.740 10000.000 0.000 0.610 15000.000 0.000 -1.329
35 105.00 1500.00 190 582 0.740 10000.000 0.000 0.610 15000.000 0.000 -1.329
36 108.00 1500.00 213 681 0.740 10000.000 0.000 0.610 15000.000 0.000 -1.329
37 111.00 1500.00 200 672 0.740 10000.000 0.000 0.610 15000.000 0.000 -1.329
38 114.00 1500.00 177 615 0.740 10000.000 0.000 0.610 15000.000 0.000 -1.329
39 117.00 1500.00 189 693 0.740 10000.000 0.000 0.610 15000.000 0.000 -1.329
40 120.00 1500.00 175 638 0.740 10000.000 0.000 0.610 15000.000 0.000 -1.329
41 123.00 1500.00 172 682 0.740 10000.000 0.000 0.610 15000.000 0.000 -1.329
42 126.00 1500.00 147 688 0.740 10000.000 0.000 0.610 15000.000 0.000 -1.329
43 129.00 1500.00 162 655 0.740 10000.000 0.000 0.610 15000.000 0.000 -1.329
44 132.00 1500.00 197 629 0.740 10000.000 0.000 0.610 15000.000 0.000 -1.329
45 135.00 1500.00 165 623 0.740 10000.000 0.000 0.610 15000.000 0.000 -1.329
46 138.00 1500.00 184 661 0.740 10000.000 0.000 0.610 15000.000 0.000 -1.329
47 141.00 1500.00 171 597 0.740 10000.000 0.000 0.610 15000.000 0.000 -1.329
48 144.00 1500.00 190 633 0.740 10000.000 0.000 0.610 15000.000 0.000 -1.329
49 147.00 1500.00 202 605 0.740 10000.000 0.000 0.610 15000.000 0.000 -1.329
50 150.00 1500.00 211 657 0.740 10000.000 0.000 0.610 15000.000 0.000 -1.329
51 153.00 1500.00 215 641 0.740 10000.000 0.000 0.610 15000.000 0.000 -1.329
52 156.00 1500.00 218 684 0.740 10000.000 0.000 0.610 15000.000 0.000 -1.329
53 159.00 1500.00 219 637 0.740 10000.000 0.000 0.610 15000.000 0.000 -1.329
54 162.00 1500.00 250 663 0.740 10000.000 0.000 0.610 15000.000 0.000 -1.329
55 165.00 1500.00 201 622 0.740 10000.000 0.000 0.610 15000.000 0.000 -1.329
56 168.00 1500.00 236 659 0.740 10000.000 0.000 0.610 15000.000 0.000 -1.329
57 171.00 1500.00 200 661 0.740 10000.000 0.000 0.610 15000.000 0.000 -1.329
58 174.00 1500.00 211 633 0.740 10000.000 0.000 0.610 15000.000 0.000 -1.329
59 177.00 1500.00 223 626 0.740 10000.000 0.000 0.610 15000.000 0.000 -1.329
60 180.00 1500.00 216 656 0.740 10000.000 0.000 0.610 15000.000 0.000 -1.329
61 183.00 1500.00 186 624 0.740 10000.000 0.000 0.610 15000.000 0.000 -1.329
62 186.00 1500.00 197 621 0.740 10000.000 0.000 0.610 15000.000 0.000 -1.329
63 189.00 1500.00 195 542 0.740 10000.000 0.000 0.610 15000.000 0.000 -1.329
64 192.00 1500.00 199 538 0.740 10000.000 0.000 0.610 15000.000 0.000 -1.329
65 195.00 1500.00 200 521 0.740 10000.000 0.000 0.610 15000.000 0.000 -1.329
66 198.00 1500.00 236 581 0.740 10000.000 0.000 0.610 15000.000 0.000 -1.329
67 201.00 1500.00 231 526 0.740 10000.000 0.000 0.610 15000.000 0.000 -1.329
68 204.00 1500.00 207 558 0.740 10000.000 0.000 0.610 15000.000 0.000 -1.329
69 207.00 1500.00 222 536 0.740 10000.000 0.000 0.610 15000.000 0.000 -1.329
70 210.00 1500.00 212 538 0.740 10000.000 0.000 0.610 15000.000 0.000 -1.329
71 213.00 1500.00 193 512 0.740 10000.000 0.000 0.610 15000.000 0.000 -1.329
72 216.00 1500.00 215 536 0.740 10000.000 0.000 0.610 15000.000 0.000 -1.329
73 219.00 1500.00 197 552 0.740 10000.000 0.000 0.610 15000.000 0.000 -1.329
74 222.00 1500.00 205 576 0.740 10000.000 0.000 0.610 15000.000 0.000 -1.329
75 225.00 1500.00 199 581 0.740 10000.000 0.000 0.610 15000.000 0.000 -1.329
76 228.00 1500.00 197 636 0.740 10000.000 0.000 0.610 15000.000 0.000 -1.329
77 231.00 1500.00 198 665 0.740 10000.000 0.000 0.610 15000.000 0.000 -1.329
78 234.00 1500.00 205 650 0.740 10000.000 0.000 0.610 15000.000 0.000 -1.329
79 237.00 1500.00 186 678 0.740 10000.000 0.000 0.610 15000.000 0.000 -1.329
80 240.00 1500.00 188 735 0.740 10000.000 0.000 0.610 15000.000 0.000 -1.329
81 243.00 1500.00 185 683 0.740 10000.000 0.000 0.610 15000.000 0.000 -1.329
82 246.00 1500.00 178 721 0.740 10000.000 0.000 0.610 15000.000 0.000 -1.329
83 249.00 1500.00 184 752 0.740 10000.000 0.000 0.610 15000.000 0.000 -1.329
84 252.00 1500.00 204 729 0.740 10000.000 0.000 0.610 15000.000 0.000 -1.329
85 255.00 1500.00 185 729 0.740 10000.000 0.000 0.610 15000.000 0.000 -1.329
86 258.00 1500.00 182 687 0.740 10000.000 0.000 0.610 15000.000 0.000 -1.329
87 261.00 1500.00 198 619 0.740 10000.000 0.000 0.610 15000.000 0.000 -1.329
88 264.00 1500.00 180 659 0.740 10000.000 0.000 0.610 15000.000 0.000 -1.329
89 267.00 1500.00 204 608 0.740 10000.000 0.000 0.610 15000.000 0.000 -1.329
90 270.00 1500.00 233 583 0.740 10000.000 0.000 0.610 15000.000 0.000 -1.329
91 273.00 1500.00 235 529 0.740 10000.000 0.000 0.610 15000.000 0.000 -1.329
92 276.00 1500.00 260 556 0.740 10000.000 0.000 0.610 15000.000 0.000 -1.329
93 279.00 1500.00 225 511 0.740 10000.000 0.000 0.610 15000.000 0.000 -1.329
94 282.00 1500.00 221 493 0.740 10000.000 0.000 0.610 15000.000 0.000 -1.329
95 285.00 1500.00 239 514 0.740 10000.000 0.000 0.610 15000.000 0.000 -1.329
96 288.00 1500.00 225 481 0.740 10000.000 0.000 0.610 15000.000 0.000 -1.329
97 291.00 1500.00 213 489 0.740 10000.000 0.000 0.610 15000.000 0.000 -1.329
98 294.00 1500.00 216 565 0.740 10000.000 0.000 0.610 15000.000 0.000 -1.329
99 297.00 1500.00 233 516 0.740 10000.000 0.000 0.610 15000.000 0.000 -1.329
100 300.00 1500.00 218 561 0.740 10000.000 0.000 0.610 15000.000 0.000 -1.329
101 303.00 1500.00 243 583 0.740 10000.000 0.000 0.610 15000.000 0.000 -1.329
102 306.00 1500.00 211 604 0.740 10000.000 0.000 0.610 15000.000 0.000 -1.329
103 309.00 1500.00 181 608 0.740 10000.000 0.000 0.610 15000.000 0.000 -1.329
104 312.00 1500.00 208 644 0.740 10000.000 0.000 0.610 15000.000 0.000 -1.329
105 315.00 1500.00 230 655 0.740 10000.000 0.000 0.610 15000.000 0.000 -1.329
106 318.00 1500.00 228 626 0.740 10000.000 0.000 0.610 15000.000 0.000 -1.329
107 321.00 1500.00 218 640 0.740 10000.000 0.000 0.610 15000.000 0.000 -1.329
108 324.00 1500.00 238 665 0.740 10000.000 0.000 0.610 15000.000 0.000 -1.329
109 327.00 1500.00 241 670 0.740 10000.000 0.000 0.610 15000.000 0.000 -1.329
110 330.00 1500.00 231 687 0.740 10000.000 0.000 0.610 15000.000 0.000 -1.329
111 333.00 1500.00 189 598 0.740 10000.000 0.000 0.610 15000.000 0.000 -1.329
112 336.00 1500.00 221 615 0.740 10000.000 0.000 0.610 15000.000 0.000 -1.329
113 339.00 1500.00 214 599 0.740 10000.000 0.000 0.610 15000.000 0.000 -1.329
114 342.00 1500.00 202 587 0.740 10000.000 0.000 0.610 15000.000 0.000 -1.329
115 345.00 1500.00 196 594 0.740 10000.000 0.000 0.610 15000.000 0.000 -1.329
116 348.00 1500.00 184 650 0.740 10000.000 0.000 0.610 15000.000 0.000 -1.329
117 351.00 1500.00 223 634 0.740 10000.000 0.000 0.610 15000.000 0.000 -1.329
118 354.00 1500.00 164 648 0.740 10000.000 0.000 0.610 15000.000 0.000 -1.329
119 357.00 1500.00 189 652 0.740 10000.000 0.000 0.610 15000.000 0.000 -1.329
120 360.00 1500.00 183 668 0.740 10000.000 0.000 0.610 15000.000 0.000 -1.329
121 363.00 1500.00 186 657 0.740 10000.000 0.000 0.610 15000.000 0.000 -1.329
122 366.00 1500.00 188 651 0.740 10000.000 0.000 0.610 15000.000 0.000 -1.329
123 369.00 1500.00 166 646 0.740 10000.000 0.000 0.610 15000.000 0.000 -1.329
124 372.00 1500.00 202 625 0.740 10000.000 0.000 0.610 15000.000 0.000 -1.329
125 375.00 1500.00 193 598 0.740 10000.000 0.000 0.610 15000.000 0.000 -1.329
126 378.00 1500.00 193 616 0.740 10000.000 0.000 0.610 15000.000 0.000 -1.329
127 381.00 1500.00 193 613 0.740 10000.000 0.000 0.610 15000.000 0.000 -1.329
128 384.00 1500.00 201 653 0.740 10000.000 0.000 0.610 15000.000 0.000 -1.329
129 387.00 1500.00 185 630 0.740 10000.000 0.000 0.610 15000.000 0.000 -1.329
130 390.00 1500.00 227 599 0.740 10000.000 0.000 0.610 15000.000 0.000 -1.329
131 393.00 1500.00 197 590 0.740 10000.000 0.000 0.610 15000.000 0.000 -1.329
132 396.00 1500.00 224 603 0.740 10000.000 0.000 0.610 15000.000 0.000 -1.329
133 399.00 1500.00 211 545 0.740 10000.000 0.000 0.610 15000.000 0.000 -1.329
134 402.00 1500.00 230 525 0.740 10000.000 0.000 0.610 15000.000 0.000 -1.329
135 405.00 1500.00 201 526 0.740 10000.000 0.000 0.610 15000.000 0.000 -1.329
136 408.00 1500.00 230 525 0.740 10000.000 0.000 0.610 15000.000 0.000 -1.329
137 411.00 1500.00 204 485 0.740 10000.000 0.000 0.610 15000.000 0.000 -1.329
138 414.00 1500.00 205 553 0.740 10000.000 0.000 0.610 15000.000 0.000 -1.329
139 417.00 1500.00 227 540 0.740 10000.000 0.000 0.610 15000.000 0.000 -1.329
140 420.00 1500.00 194 569 0.740 10000.000 0.000 0.610 15000.000 0.000 -1.329
141 423.00 1500.00 215 537 0.740 10000.000 0.000 0.610 15000.000 0.000 -1.329
142 426.00 1500.00 237 644 0.740 10000.000 0.000 0.610 15000.000 0.000 -1.329
143 429.00 1500.00 207 623 0.740 10000.000 0.000 0.610 15000.000 0.000 -1.329
144 432.00 1500.00 185 655 0.740 10000.000 0.000 0.610 15000.000 0.000 -1.329
