# BinNR microsec tot-time (s)  O-Beam AUX Ampl(V) f(Hz) phase(deg) chi(pos)
0 0.00 1500.00 112 324 1.000 10000.000 0.000 1.329
1 3.00 1500.00 222 627 1.000 10000.000 0.000 1.329
2 6.00 1500.00 253 634 1.000 10000.000 0.000 1.329
3 9.00 1500.00 225 608 1.000 10000.000 0.000 1.329
4 12.00 1500.00 230 563 1.000 10000.000 0.000 1.329
5 15.00 1500.00 240 618 1.000 10000.000 0.000 1.329
6 18.00 1500.00 233 620 1.000 10000.000 0.000 1.329
7 21.00 1500.00 235 543 1.000 10000.000 0.000 1.329
8 24.00 1500.00 238 536 1.000 10000.000 0.000 1.329
9 27.00 1500.00 230 537 1.000 10000.000 0.000 1.329
10 30.00 1500.00 207 509 1.000 10000.000 0.000 1.329
11 33.00 1500.00 210 529 1.000 10000.000 0.000 1.329
12 36.00 1500.00 228 499 1.000 10000.000 0.000 1.329
13 39.00 1500.00 224 545 1.000 10000.000 0.000 1.329
14 42.00 1500.00 205 512 1.000 10000.000 0.000 1.329
15 45.00 1500.00 191 524 1.000 10000.000 0.000 1.329
16 48.00 1500.00 224 554 1.000 10000.000 0.000 1.329
17 51.00 1500.00 184 509 1.000 10000.000 0.000 1.329
18 54.00 1500.00 217 518 1.000 10000.000 0.000 1.329
19 57.00 1500.00 226 554 1.000 10000.000 0.000 1.329
20 60.00 1500.00 195 544 1.000 10000.000 0.000 1.329
21 63.00 1500.00 208 545 1.000 10000.000 0.000 1.329
22 66.00 1500.00 226 521 1.000 10000.000 0.000 1.329
23 69.00 1500.00 208 556 1.000 10000.000 0.000 1.329
24 72.00 1500.00 232 572 1.000 10000.000 0.000 1.329
25 75.00 1500.00 230 577 1.000 10000.000 0.000 1.329
26 78.00 1500.00 225 603 1.000 10000.000 0.000 1.329
27 81.00 1500.00 255 650 1.000 10000.000 0.000 1.329
28 84.00 1500.00 241 618 1.000 10000.000 0.000 1.329
29 87.00 1500.00 229 651 1.000 10000.000 0.000 1.329
30 90.00 1500.00 224 630 1.000 10000.000 0.000 1.329
31 93.00 1500.00 261 607 1.000 10000.000 0.000 1.329
32 96.00 1500.00 259 660 1.000 10000.000 0.000 1.329
33 99.00 1500.00 282 649 1.000 10000.000 0.000 1.329
34 102.00 1500.00 260 705 1.000 10000.000 0.000 1.329
35 105.00 1500.00 245 617 1.000 10000.000 0.000 1.329
36 108.00 1500.00 253 658 1.000 10000.000 0.000 1.329
37 111.00 1500.00 228 624 1.000 10000.000 0.000 1.329
38 114.00 1500.00 241 658 1.000 10000.000 0.000 1.329
39 117.00 1500.00 229 604 1.000 10000.000 0.000 1.329
40 120.00 1500.00 242 603 1.000 10000.000 0.000 1.329
41 123.00 1500.00 208 584 1.000 10000.000 0.000 1.329
42 126.00 1500.00 241 516 1.000 10000.000 0.000 1.329
43 129.00 1500.00 222 555 1.000 10000.000 0.000 1.329
44 132.00 1500.00 217 502 1.000 10000.000 0.000 1.329
45 135.00 1500.00 185 538 1.000 10000.000 0.000 1.329
46 138.00 1500.00 236 559 1.000 10000.000 0.000 1.329
47 141.00 1500.00 197 553 1.000 10000.000 0.000 1.329
48 144.00 1500.00 214 532 1.000 10000.000 0.000 1.329
49 147.00 1500.00 194 475 1.000 10000.000 0.000 1.329
50 150.00 1500.00 211 514 1.000 10000.000 0.000 1.329
51 153.00 1500.00 215 513 1.000 10000.000 0.000 1.329
52 156.00 1500.00 216 532 1.000 10000.000 0.000 1.329
53 159.00 1500.00 240 538 1.000 10000.000 0.000 1.329
54 162.00 1500.00 231 551 1.000 10000.000 0.000 1.329
55 165.00 1500.00 221 563 1.000 10000.000 0.000 1.329
56 168.00 1500.00 250 546 1.000 10000.000 0.000 1.329
57 171.00 1500.00 239 578 1.000 10000.000 0.000 1.329
58 174.00 1500.00 224 605 1.000 10000.000 0.000 1.329
59 177.00 1500.00 222 626 1.000 10000.000 0.000 1.329
60 180.00 1500.00 247 631 1.000 10000.000 0.000 1.329
61 183.00 1500.00 223 659 1.000 10000.000 0.000 1.329
62 186.00 1500.00 252 651 1.000 10000.000 0.000 1.329
63 189.00 1500.00 251 663 1.000 10000.000 0.000 1.329
64 192.00 1500.00 247 646 1.000 10000.000 0.000 1.329
65 195.00 1500.00 241 638 1.000 10000.000 0.000 1.329
66 198.00 1500.00 253 662 1.000 10000.000 0.000 1.329
67 201.00 1500.00 238 666 1.000 10000.000 0.000 1.329
68 204.00 1500.00 251 682 1.000 10000.000 0.000 1.329
69 207.00 1500.00 224 667 1.000 10000.000 0.000 1.329
70 210.00 1500.00 246 680 1.000 10000.000 0.000 1.329
71 213.00 1500.00 242 622 1.000 10000.000 0.000 1.329
72 216.00 1500.00 222 598 1.000 10000.000 0.000 1.329
73 219.00 1500.00 209 645 1.000 10000.000 0.000 1.329
74 222.00 1500.00 226 586 1.000 10000.000 0.000 1.329
75 225.00 1500.00 240 592 1.000 10000.000 0.000 1.329
76 228.00 1500.00 224 574 1.000 10000.000 0.000 1.329
77 231.00 1500.00 242 568 1.000 10000.000 0.000 1.329
78 234.00 1500.00 199 513 1.000 10000.000 0.000 1.329
79 237.00 1500.00 186 506 1.000 10000.000 0.000 1.329
80 240.00 1500.00 210 484 1.000 10000.000 0.000 1.329
81 243.00 1500.00 208 488 1.000 10000.000 0.000 1.329
82 246.00 1500.00 221 525 1.000 10000.000 0.000 1.329
83 249.00 1500.00 202 507 1.000 10000.000 0.000 1.329
84 252.00 1500.00 213 493 1.000 10000.000 0.000 1.329
85 255.00 1500.00 247 514 1.000 10000.000 0.000 1.329
86 258.00 1500.00 211 541 1.000 10000.000 0.000 1.329
87 261.00 1500.00 206 516 1.000 10000.000 0.000 1.329
88 264.00 1500.00 220 559 1.000 10000.000 0.000 1.329
89 267.00 1500.00 203 555 1.000 10000.000 0.000 1.329
90 270.00 1500.00 239 600 1.000 10000.000 0.000 1.329
91 273.00 1500.00 247 594 1.000 10000.000 0.000 1.329
92 276.00 1500.00 246 600 1.000 10000.000 0.000 1.329
93 279.00 1500.00 228 619 1.000 10000.000 0.000 1.329
94 282.00 1500.00 246 634 1.000 10000.000 0.000 1.329
95 285.00 1500.00 273 616 1.000 10000.000 0.000 1.329
96 288.00 1500.00 236 629 1.000 10000.000 0.000 1.329
97 291.00 1500.00 203 643 1.000 10000.000 0.000 1.329
98 294.00 1500.00 253 660 1.000 10000.000 0.000 1.329
99 297.00 1500.00 258 633 1.000 10000.000 0.000 1.329
100 300.00 1500.00 247 647 1.000 10000.000 0.000 1.329
101 303.00 1500.00 225 627 1.000 10000.000 0.000 1.329
102 306.00 1500.00 248 682 1.000 10000.000 0.000 1.329
103 309.00 1500.00 258 628 1.000 10000.000 0.000 1.329
104 312.00 1500.00 246 633 1.000 10000.000 0.000 1.329
105 315.00 1500.00 210 607 1.000 10000.000 0.000 1.329
106 318.00 1500.00 230 605 1.000 10000.000 0.000 1.329
107 321.00 1500.00 233 581 1.000 10000.000 0.000 1.329
108 324.00 1500.00 259 567 1.000 10000.000 0.000 1.329
109 327.00 1500.00 204 525 1.000 10000.000 0.000 1.329
110 330.00 1500.00 238 544 1.000 10000.000 0.000 1.329
111 333.00 1500.00 237 544 1.000 10000.000 0.000 1.329
112 336.00 1500.00 192 510 1.000 10000.000 0.000 1.329
113 339.00 1500.00 202 497 1.000 10000.000 0.000 1.329
114 342.00 1500.00 214 539 1.000 10000.000 0.000 1.329
115 345.00 1500.00 187 464 1.000 10000.000 0.000 1.329
116 348.00 1500.00 217 513 1.000 10000.000 0.000 1.329
117 351.00 1500.00 226 511 1.000 10000.000 0.000 1.329
118 354.00 1500.00 188 535 1.000 10000.000 0.000 1.329
119 357.00 1500.00 223 540 1.000 10000.000 0.000 1.329
120 360.00 1500.00 203 527 1.000 10000.000 0.000 1.329
121 363.00 1500.00 237 547 1.000 10000.000 0.000 1.329
122 366.00 1500.00 204 530 1.000 10000.000 0.000 1.329
123 369.00 1500.00 193 585 1.000 10000.000 0.000 1.329
124 372.00 1500.00 207 631 1.000 10000.000 0.000 1.329
125 375.00 1500.00 227 594 1.000 10000.000 0.000 1.329
126 378.00 1500.00 251 651 1.000 10000.000 0.000 1.329
127 381.00 1500.00 221 636 1.000 10000.000 0.000 1.329
128 384.00 1500.00 235 635 1.000 10000.000 0.000 1.329
129 387.00 1500.00 235 616 1.000 10000.000 0.000 1.329
130 390.00 1500.00 253 650 1.000 10000.000 0.000 1.329
131 393.00 1500.00 216 659 1.000 10000.000 0.000 1.329
132 396.00 1500.00 236 651 1.000 10000.000 0.000 1.329
133 399.00 1500.00 268 618 1.000 10000.000 0.000 1.329
134 402.00 1500.00 223 669 1.000 10000.000 0.000 1.329
