# BinNR microsec tot-time (s)  O-Beam AUX Ampl(V) f(Hz) phase(deg) chi(pos)
0 0.00 1500.01 104 345 1.000 10000.000 0.000 0.824
1 3.00 1500.01 224 686 1.000 10000.000 0.000 0.824
2 6.00 1500.01 252 746 1.000 10000.000 0.000 0.824
3 9.00 1500.01 274 689 1.000 10000.000 0.000 0.824
4 12.00 1500.01 281 758 1.000 10000.000 0.000 0.824
5 15.00 1500.01 248 720 1.000 10000.000 0.000 0.824
6 18.00 1500.01 249 723 1.000 10000.000 0.000 0.824
7 21.00 1500.01 253 758 1.000 10000.000 0.000 0.824
8 24.00 1500.01 275 788 1.000 10000.000 0.000 0.824
9 27.00 1500.01 241 728 1.000 10000.000 0.000 0.824
10 30.00 1500.01 277 776 1.000 10000.000 0.000 0.824
11 33.00 1500.01 278 702 1.000 10000.000 0.000 0.824
12 36.00 1500.01 247 776 1.000 10000.000 0.000 0.824
13 39.00 1500.01 265 755 1.000 10000.000 0.000 0.824
14 42.00 1500.01 273 760 1.000 10000.000 0.000 0.824
15 45.00 1500.01 250 742 1.000 10000.000 0.000 0.824
16 48.00 1500.01 245 769 1.000 10000.000 0.000 0.824
17 51.00 1500.01 238 688 1.000 10000.000 0.000 0.824
18 54.00 1500.01 290 683 1.000 10000.000 0.000 0.824
19 57.00 1500.01 247 697 1.000 10000.000 0.000 0.824
20 60.00 1500.01 286 755 1.000 10000.000 0.000 0.824
21 63.00 1500.01 247 729 1.000 10000.000 0.000 0.824
22 66.00 1500.01 261 783 1.000 10000.000 0.000 0.824
23 69.00 1500.01 231 717 1.000 10000.000 0.000 0.824
24 72.00 1500.01 225 748 1.000 10000.000 0.000 0.824
25 75.00 1500.01 233 728 1.000 10000.000 0.000 0.824
26 78.00 1500.01 242 756 1.000 10000.000 0.000 0.824
27 81.00 1500.01 246 707 1.000 10000.000 0.000 0.824
28 84.00 1500.01 249 716 1.000 10000.000 0.000 0.824
29 87.00 1500.01 226 687 1.000 10000.000 0.000 0.824
30 90.00 1500.01 235 693 1.000 10000.000 0.000 0.824
31 93.00 1500.01 260 700 1.000 10000.000 0.000 0.824
32 96.00 1500.01 251 718 1.000 10000.000 0.000 0.824
33 99.00 1500.01 241 686 1.000 10000.000 0.000 0.824
34 102.00 1500.01 230 817 1.000 10000.000 0.000 0.824
35 105.00 1500.01 235 693 1.000 10000.000 0.000 0.824
36 108.00 1500.01 239 694 1.000 10000.000 0.000 0.824
37 111.00 1500.01 263 731 1.000 10000.000 0.000 0.824
38 114.00 1500.01 234 768 1.000 10000.000 0.000 0.824
39 117.00 1500.01 250 726 1.000 10000.000 0.000 0.824
40 120.00 1500.01 232 741 1.000 10000.000 0.000 0.824
41 123.00 1500.01 253 741 1.000 10000.000 0.000 0.824
42 126.00 1500.01 244 731 1.000 10000.000 0.000 0.824
43 129.00 1500.01 239 782 1.000 10000.000 0.000 0.824
44 132.00 1500.01 272 796 1.000 10000.000 0.000 0.824
45 135.00 1500.01 237 728 1.000 10000.000 0.000 0.824
46 138.00 1500.01 268 754 1.000 10000.000 0.000 0.824
47 141.00 1500.01 252 713 1.000 10000.000 0.000 0.824
48 144.00 1500.01 262 763 1.000 10000.000 0.000 0.824
49 147.00 1500.01 247 784 1.000 10000.000 0.000 0.824
50 150.00 1500.01 262 761 1.000 10000.000 0.000 0.824
51 153.00 1500.01 249 789 1.000 10000.000 0.000 0.824
52 156.00 1500.01 255 732 1.000 10000.000 0.000 0.824
53 159.00 1500.01 243 691 1.000 10000.000 0.000 0.824
54 162.00 1500.01 262 753 1.000 10000.000 0.000 0.824
55 165.00 1500.01 236 725 1.000 10000.000 0.000 0.824
56 168.00 1500.01 256 700 1.000 10000.000 0.000 0.824
57 171.00 1500.01 248 740 1.000 10000.000 0.000 0.824
58 174.00 1500.01 239 768 1.000 10000.000 0.000 0.824
59 177.00 1500.01 255 746 1.000 10000.000 0.000 0.824
60 180.00 1500.01 240 708 1.000 10000.000 0.000 0.824
61 183.00 1500.01 234 661 1.000 10000.000 0.000 0.824
62 186.00 1500.01 266 739 1.000 10000.000 0.000 0.824
63 189.00 1500.01 250 691 1.000 10000.000 0.000 0.824
64 192.00 1500.01 251 705 1.000 10000.000 0.000 0.824
65 195.00 1500.01 225 712 1.000 10000.000 0.000 0.824
66 198.00 1500.01 260 722 1.000 10000.000 0.000 0.824
67 201.00 1500.01 261 713 1.000 10000.000 0.000 0.824
68 204.00 1500.01 253 709 1.000 10000.000 0.000 0.824
69 207.00 1500.01 246 711 1.000 10000.000 0.000 0.824
70 210.00 1500.01 242 703 1.000 10000.000 0.000 0.824
71 213.00 1500.01 243 714 1.000 10000.000 0.000 0.824
72 216.00 1500.01 247 720 1.000 10000.000 0.000 0.824
73 219.00 1500.01 252 755 1.000 10000.000 0.000 0.824
74 222.00 1500.01 253 722 1.000 10000.000 0.000 0.824
75 225.00 1500.01 257 770 1.000 10000.000 0.000 0.824
76 228.00 1500.01 291 728 1.000 10000.000 0.000 0.824
77 231.00 1500.01 236 750 1.000 10000.000 0.000 0.824
78 234.00 1500.01 260 766 1.000 10000.000 0.000 0.824
79 237.00 1500.01 250 709 1.000 10000.000 0.000 0.824
80 240.00 1500.01 275 729 1.000 10000.000 0.000 0.824
81 243.00 1500.01 283 778 1.000 10000.000 0.000 0.824
82 246.00 1500.01 247 769 1.000 10000.000 0.000 0.824
83 249.00 1500.01 264 732 1.000 10000.000 0.000 0.824
84 252.00 1500.01 250 709 1.000 10000.000 0.000 0.824
85 255.00 1500.01 259 743 1.000 10000.000 0.000 0.824
86 258.00 1500.01 247 761 1.000 10000.000 0.000 0.824
87 261.00 1500.01 254 712 1.000 10000.000 0.000 0.824
88 264.00 1500.01 253 782 1.000 10000.000 0.000 0.824
89 267.00 1500.01 261 760 1.000 10000.000 0.000 0.824
90 270.00 1500.01 240 752 1.000 10000.000 0.000 0.824
91 273.00 1500.01 246 716 1.000 10000.000 0.000 0.824
92 276.00 1500.01 237 747 1.000 10000.000 0.000 0.824
93 279.00 1500.01 234 724 1.000 10000.000 0.000 0.824
94 282.00 1500.01 259 737 1.000 10000.000 0.000 0.824
95 285.00 1500.01 239 690 1.000 10000.000 0.000 0.824
96 288.00 1500.01 272 706 1.000 10000.000 0.000 0.824
97 291.00 1500.01 240 716 1.000 10000.000 0.000 0.824
98 294.00 1500.01 237 767 1.000 10000.000 0.000 0.824
99 297.00 1500.01 218 694 1.000 10000.000 0.000 0.824
100 300.00 1500.01 241 672 1.000 10000.000 0.000 0.824
101 303.00 1500.01 254 682 1.000 10000.000 0.000 0.824
102 306.00 1500.01 239 698 1.000 10000.000 0.000 0.824
103 309.00 1500.01 239 674 1.000 10000.000 0.000 0.824
104 312.00 1500.01 263 724 1.000 10000.000 0.000 0.824
105 315.00 1500.01 221 761 1.000 10000.000 0.000 0.824
106 318.00 1500.01 220 736 1.000 10000.000 0.000 0.824
107 321.00 1500.01 254 725 1.000 10000.000 0.000 0.824
108 324.00 1500.01 268 768 1.000 10000.000 0.000 0.824
109 327.00 1500.01 272 747 1.000 10000.000 0.000 0.824
110 330.00 1500.01 278 729 1.000 10000.000 0.000 0.824
111 333.00 1500.01 243 770 1.000 10000.000 0.000 0.824
112 336.00 1500.01 270 793 1.000 10000.000 0.000 0.824
113 339.00 1500.01 245 709 1.000 10000.000 0.000 0.824
114 342.00 1500.01 273 743 1.000 10000.000 0.000 0.824
115 345.00 1500.01 280 756 1.000 10000.000 0.000 0.824
116 348.00 1500.01 243 753 1.000 10000.000 0.000 0.824
117 351.00 1500.01 268 683 1.000 10000.000 0.000 0.824
118 354.00 1500.01 264 780 1.000 10000.000 0.000 0.824
119 357.00 1500.01 242 707 1.000 10000.000 0.000 0.824
120 360.00 1500.01 258 746 1.000 10000.000 0.000 0.824
121 363.00 1500.01 227 782 1.000 10000.000 0.000 0.824
122 366.00 1500.01 258 781 1.000 10000.000 0.000 0.824
123 369.00 1500.01 259 723 1.000 10000.000 0.000 0.824
124 372.00 1500.01 274 690 1.000 10000.000 0.000 0.824
125 375.00 1500.01 231 717 1.000 10000.000 0.000 0.824
126 378.00 1500.01 257 710 1.000 10000.000 0.000 0.824
127 381.00 1500.01 244 653 1.000 10000.000 0.000 0.824
128 384.00 1500.01 252 764 1.000 10000.000 0.000 0.824
129 387.00 1500.01 251 707 1.000 10000.000 0.000 0.824
130 390.00 1500.01 218 697 1.000 10000.000 0.000 0.824
131 393.00 1500.01 240 658 1.000 10000.000 0.000 0.824
132 396.00 1500.01 251 750 1.000 10000.000 0.000 0.824
133 399.00 1500.01 241 693 1.000 10000.000 0.000 0.824
134 402.00 1500.01 238 710 1.000 10000.000 0.000 0.824
