# BinNR microsec tot-time (s)  O-Beam AUX Ampl(V) f(Hz) phase(deg) chi(pos)
0 0.00 1500.01 123 355 1.000 10000.000 0.000 -1.154
1 3.00 1500.01 227 759 1.000 10000.000 0.000 -1.154
2 6.00 1500.01 287 742 1.000 10000.000 0.000 -1.154
3 9.00 1500.01 251 726 1.000 10000.000 0.000 -1.154
4 12.00 1500.01 263 773 1.000 10000.000 0.000 -1.154
5 15.00 1500.01 255 763 1.000 10000.000 0.000 -1.154
6 18.00 1500.01 248 776 1.000 10000.000 0.000 -1.154
7 21.00 1500.01 273 710 1.000 10000.000 0.000 -1.154
8 24.00 1500.01 248 797 1.000 10000.000 0.000 -1.154
9 27.00 1500.01 281 733 1.000 10000.000 0.000 -1.154
10 30.00 1500.01 262 755 1.000 10000.000 0.000 -1.154
11 33.00 1500.01 273 741 1.000 10000.000 0.000 -1.154
12 36.00 1500.01 271 802 1.000 10000.000 0.000 -1.154
13 39.00 1500.01 264 780 1.000 10000.000 0.000 -1.154
14 42.00 1500.01 257 716 1.000 10000.000 0.000 -1.154
15 45.00 1500.01 257 763 1.000 10000.000 0.000 -1.154
16 48.00 1500.01 254 770 1.000 10000.000 0.000 -1.154
17 51.00 1500.01 280 712 1.000 10000.000 0.000 -1.154
18 54.00 1500.01 258 667 1.000 10000.000 0.000 -1.154
19 57.00 1500.01 252 727 1.000 10000.000 0.000 -1.154
20 60.00 1500.01 279 729 1.000 10000.000 0.000 -1.154
21 63.00 1500.01 235 776 1.000 10000.000 0.000 -1.154
22 66.00 1500.01 250 738 1.000 10000.000 0.000 -1.154
23 69.00 1500.01 246 753 1.000 10000.000 0.000 -1.154
24 72.00 1500.01 255 718 1.000 10000.000 0.000 -1.154
25 75.00 1500.01 262 783 1.000 10000.000 0.000 -1.154
26 78.00 1500.01 251 762 1.000 10000.000 0.000 -1.154
27 81.00 1500.01 266 701 1.000 10000.000 0.000 -1.154
28 84.00 1500.01 250 733 1.000 10000.000 0.000 -1.154
29 87.00 1500.01 234 726 1.000 10000.000 0.000 -1.154
30 90.00 1500.01 252 797 1.000 10000.000 0.000 -1.154
31 93.00 1500.01 231 749 1.000 10000.000 0.000 -1.154
32 96.00 1500.01 251 765 1.000 10000.000 0.000 -1.154
33 99.00 1500.01 239 739 1.000 10000.000 0.000 -1.154
34 102.00 1500.01 240 673 1.000 10000.000 0.000 -1.154
35 105.00 1500.01 260 756 1.000 10000.000 0.000 -1.154
36 108.00 1500.01 249 732 1.000 10000.000 0.000 -1.154
37 111.00 1500.01 238 776 1.000 10000.000 0.000 -1.154
38 114.00 1500.01 275 709 1.000 10000.000 0.000 -1.154
39 117.00 1500.01 246 721 1.000 10000.000 0.000 -1.154
40 120.00 1500.01 249 747 1.000 10000.000 0.000 -1.154
41 123.00 1500.01 289 771 1.000 10000.000 0.000 -1.154
42 126.00 1500.01 242 763 1.000 10000.000 0.000 -1.154
43 129.00 1500.01 267 768 1.000 10000.000 0.000 -1.154
44 132.00 1500.01 311 768 1.000 10000.000 0.000 -1.154
45 135.00 1500.01 263 735 1.000 10000.000 0.000 -1.154
46 138.00 1500.01 280 763 1.000 10000.000 0.000 -1.154
47 141.00 1500.01 241 736 1.000 10000.000 0.000 -1.154
48 144.00 1500.01 262 786 1.000 10000.000 0.000 -1.154
49 147.00 1500.01 251 734 1.000 10000.000 0.000 -1.154
50 150.00 1500.01 269 733 1.000 10000.000 0.000 -1.154
51 153.00 1500.01 243 729 1.000 10000.000 0.000 -1.154
52 156.00 1500.01 272 761 1.000 10000.000 0.000 -1.154
53 159.00 1500.01 254 730 1.000 10000.000 0.000 -1.154
54 162.00 1500.01 281 770 1.000 10000.000 0.000 -1.154
55 165.00 1500.01 247 800 1.000 10000.000 0.000 -1.154
56 168.00 1500.01 248 725 1.000 10000.000 0.000 -1.154
57 171.00 1500.01 269 758 1.000 10000.000 0.000 -1.154
58 174.00 1500.01 271 731 1.000 10000.000 0.000 -1.154
59 177.00 1500.01 266 699 1.000 10000.000 0.000 -1.154
60 180.00 1500.01 251 742 1.000 10000.000 0.000 -1.154
61 183.00 1500.01 252 717 1.000 10000.000 0.000 -1.154
62 186.00 1500.01 245 759 1.000 10000.000 0.000 -1.154
63 189.00 1500.01 229 709 1.000 10000.000 0.000 -1.154
64 192.00 1500.01 285 735 1.000 10000.000 0.000 -1.154
65 195.00 1500.01 243 724 1.000 10000.000 0.000 -1.154
66 198.00 1500.01 268 755 1.000 10000.000 0.000 -1.154
67 201.00 1500.01 239 756 1.000 10000.000 0.000 -1.154
68 204.00 1500.01 261 800 1.000 10000.000 0.000 -1.154
69 207.00 1500.01 232 753 1.000 10000.000 0.000 -1.154
70 210.00 1500.01 279 741 1.000 10000.000 0.000 -1.154
71 213.00 1500.01 273 783 1.000 10000.000 0.000 -1.154
72 216.00 1500.01 269 716 1.000 10000.000 0.000 -1.154
73 219.00 1500.01 270 729 1.000 10000.000 0.000 -1.154
74 222.00 1500.01 251 781 1.000 10000.000 0.000 -1.154
75 225.00 1500.01 249 779 1.000 10000.000 0.000 -1.154
76 228.00 1500.01 272 775 1.000 10000.000 0.000 -1.154
77 231.00 1500.01 279 752 1.000 10000.000 0.000 -1.154
78 234.00 1500.01 241 727 1.000 10000.000 0.000 -1.154
79 237.00 1500.01 262 718 1.000 10000.000 0.000 -1.154
80 240.00 1500.01 258 735 1.000 10000.000 0.000 -1.154
81 243.00 1500.01 273 737 1.000 10000.000 0.000 -1.154
82 246.00 1500.01 276 751 1.000 10000.000 0.000 -1.154
83 249.00 1500.01 256 722 1.000 10000.000 0.000 -1.154
84 252.00 1500.01 240 749 1.000 10000.000 0.000 -1.154
85 255.00 1500.01 266 747 1.000 10000.000 0.000 -1.154
86 258.00 1500.01 277 733 1.000 10000.000 0.000 -1.154
87 261.00 1500.01 251 732 1.000 10000.000 0.000 -1.154
88 264.00 1500.01 266 821 1.000 10000.000 0.000 -1.154
89 267.00 1500.01 247 734 1.000 10000.000 0.000 -1.154
90 270.00 1500.01 265 785 1.000 10000.000 0.000 -1.154
91 273.00 1500.01 258 741 1.000 10000.000 0.000 -1.154
92 276.00 1500.01 256 727 1.000 10000.000 0.000 -1.154
93 279.00 1500.01 232 732 1.000 10000.000 0.000 -1.154
94 282.00 1500.01 268 781 1.000 10000.000 0.000 -1.154
95 285.00 1500.01 244 770 1.000 10000.000 0.000 -1.154
96 288.00 1500.01 251 744 1.000 10000.000 0.000 -1.154
97 291.00 1500.01 263 709 1.000 10000.000 0.000 -1.154
98 294.00 1500.01 248 784 1.000 10000.000 0.000 -1.154
99 297.00 1500.01 257 764 1.000 10000.000 0.000 -1.154
100 300.00 1500.01 243 732 1.000 10000.000 0.000 -1.154
101 303.00 1500.01 229 757 1.000 10000.000 0.000 -1.154
102 306.00 1500.01 243 774 1.000 10000.000 0.000 -1.154
103 309.00 1500.01 243 765 1.000 10000.000 0.000 -1.154
104 312.00 1500.01 240 734 1.000 10000.000 0.000 -1.154
105 315.00 1500.01 276 739 1.000 10000.000 0.000 -1.154
106 318.00 1500.01 240 725 1.000 10000.000 0.000 -1.154
107 321.00 1500.01 239 748 1.000 10000.000 0.000 -1.154
108 324.00 1500.01 281 731 1.000 10000.000 0.000 -1.154
109 327.00 1500.01 275 722 1.000 10000.000 0.000 -1.154
110 330.00 1500.01 252 785 1.000 10000.000 0.000 -1.154
111 333.00 1500.01 263 775 1.000 10000.000 0.000 -1.154
112 336.00 1500.01 275 757 1.000 10000.000 0.000 -1.154
113 339.00 1500.01 287 717 1.000 10000.000 0.000 -1.154
114 342.00 1500.01 239 769 1.000 10000.000 0.000 -1.154
115 345.00 1500.01 268 730 1.000 10000.000 0.000 -1.154
116 348.00 1500.01 283 793 1.000 10000.000 0.000 -1.154
117 351.00 1500.01 263 789 1.000 10000.000 0.000 -1.154
118 354.00 1500.01 275 758 1.000 10000.000 0.000 -1.154
119 357.00 1500.01 255 775 1.000 10000.000 0.000 -1.154
120 360.00 1500.01 250 775 1.000 10000.000 0.000 -1.154
121 363.00 1500.01 242 753 1.000 10000.000 0.000 -1.154
122 366.00 1500.01 262 804 1.000 10000.000 0.000 -1.154
123 369.00 1500.01 257 703 1.000 10000.000 0.000 -1.154
124 372.00 1500.01 252 800 1.000 10000.000 0.000 -1.154
125 375.00 1500.01 240 722 1.000 10000.000 0.000 -1.154
126 378.00 1500.01 284 762 1.000 10000.000 0.000 -1.154
127 381.00 1500.01 272 697 1.000 10000.000 0.000 -1.154
128 384.00 1500.01 256 761 1.000 10000.000 0.000 -1.154
129 387.00 1500.01 229 713 1.000 10000.000 0.000 -1.154
130 390.00 1500.01 248 774 1.000 10000.000 0.000 -1.154
131 393.00 1500.01 257 711 1.000 10000.000 0.000 -1.154
132 396.00 1500.01 274 754 1.000 10000.000 0.000 -1.154
133 399.00 1500.01 255 692 1.000 10000.000 0.000 -1.154
134 402.00 1500.01 264 736 1.000 10000.000 0.000 -1.154
