# BinNR microsec tot-time (s)  O-Beam AUX Ampl(V) f(Hz) phase(deg) chi(pos)
0 0.00 1200.00 77 87 5.150 10000.000 0.000 0.242
1 3.00 1200.00 119 160 5.150 10000.000 0.000 0.242
2 6.00 1200.00 138 171 5.150 10000.000 0.000 0.242
3 9.00 1200.00 126 173 5.150 10000.000 0.000 0.242
4 12.00 1200.00 104 205 5.150 10000.000 0.000 0.242
5 15.00 1200.00 86 253 5.150 10000.000 0.000 0.242
6 18.00 1200.00 95 287 5.150 10000.000 0.000 0.242
7 21.00 1200.00 80 360 5.150 10000.000 0.000 0.242
8 24.00 1200.00 89 381 5.150 10000.000 0.000 0.242
9 27.00 1200.00 99 390 5.150 10000.000 0.000 0.242
10 30.00 1200.00 96 349 5.150 10000.000 0.000 0.242
11 33.00 1200.00 118 317 5.150 10000.000 0.000 0.242
12 36.00 1200.00 130 298 5.150 10000.000 0.000 0.242
13 39.00 1200.00 140 240 5.150 10000.000 0.000 0.242
14 42.00 1200.00 144 204 5.150 10000.000 0.000 0.242
15 45.00 1200.00 153 128 5.150 10000.000 0.000 0.242
16 48.00 1200.00 157 142 5.150 10000.000 0.000 0.242
17 51.00 1200.00 180 140 5.150 10000.000 0.000 0.242
18 54.00 1200.00 166 179 5.150 10000.000 0.000 0.242
19 57.00 1200.00 162 213 5.150 10000.000 0.000 0.242
20 60.00 1200.00 171 271 5.150 10000.000 0.000 0.242
21 63.00 1200.00 160 248 5.150 10000.000 0.000 0.242
22 66.00 1200.00 129 255 5.150 10000.000 0.000 0.242
23 69.00 1200.00 133 229 5.150 10000.000 0.000 0.242
24 72.00 1200.00 112 217 5.150 10000.000 0.000 0.242
25 75.00 1200.00 96 233 5.150 10000.000 0.000 0.242
26 78.00 1200.00 87 182 5.150 10000.000 0.000 0.242
27 81.00 1200.00 90 156 5.150 10000.000 0.000 0.242
28 84.00 1200.00 116 145 5.150 10000.000 0.000 0.242
29 87.00 1200.00 105 133 5.150 10000.000 0.000 0.242
30 90.00 1200.00 109 196 5.150 10000.000 0.000 0.242
31 93.00 1200.00 126 246 5.150 10000.000 0.000 0.242
32 96.00 1200.00 124 266 5.150 10000.000 0.000 0.242
33 99.00 1200.00 143 299 5.150 10000.000 0.000 0.242
34 102.00 1200.00 131 365 5.150 10000.000 0.000 0.242
35 105.00 1200.00 133 408 5.150 10000.000 0.000 0.242
36 108.00 1200.00 120 435 5.150 10000.000 0.000 0.242
37 111.00 1200.00 133 415 5.150 10000.000 0.000 0.242
38 114.00 1200.00 96 464 5.150 10000.000 0.000 0.242
39 117.00 1200.00 96 452 5.150 10000.000 0.000 0.242
40 120.00 1200.00 85 455 5.150 10000.000 0.000 0.242
41 123.00 1200.00 83 435 5.150 10000.000 0.000 0.242
42 126.00 1200.00 80 402 5.150 10000.000 0.000 0.242
43 129.00 1200.00 96 347 5.150 10000.000 0.000 0.242
44 132.00 1200.00 117 335 5.150 10000.000 0.000 0.242
45 135.00 1200.00 121 267 5.150 10000.000 0.000 0.242
46 138.00 1200.00 135 246 5.150 10000.000 0.000 0.242
47 141.00 1200.00 154 188 5.150 10000.000 0.000 0.242
48 144.00 1200.00 170 128 5.150 10000.000 0.000 0.242
49 147.00 1200.00 167 129 5.150 10000.000 0.000 0.242
50 150.00 1200.00 167 160 5.150 10000.000 0.000 0.242
51 153.00 1200.00 152 172 5.150 10000.000 0.000 0.242
52 156.00 1200.00 176 195 5.150 10000.000 0.000 0.242
53 159.00 1200.00 164 230 5.150 10000.000 0.000 0.242
54 162.00 1200.00 165 264 5.150 10000.000 0.000 0.242
55 165.00 1200.00 186 234 5.150 10000.000 0.000 0.242
56 168.00 1200.00 142 250 5.150 10000.000 0.000 0.242
57 171.00 1200.00 99 237 5.150 10000.000 0.000 0.242
58 174.00 1200.00 109 229 5.150 10000.000 0.000 0.242
59 177.00 1200.00 94 188 5.150 10000.000 0.000 0.242
60 180.00 1200.00 102 156 5.150 10000.000 0.000 0.242
61 183.00 1200.00 96 130 5.150 10000.000 0.000 0.242
62 186.00 1200.00 121 145 5.150 10000.000 0.000 0.242
63 189.00 1200.00 109 171 5.150 10000.000 0.000 0.242
64 192.00 1200.00 114 205 5.150 10000.000 0.000 0.242
65 195.00 1200.00 129 247 5.150 10000.000 0.000 0.242
66 198.00 1200.00 150 293 5.150 10000.000 0.000 0.242
67 201.00 1200.00 127 338 5.150 10000.000 0.000 0.242
68 204.00 1200.00 163 383 5.150 10000.000 0.000 0.242
69 207.00 1200.00 137 415 5.150 10000.000 0.000 0.242
70 210.00 1200.00 121 465 5.150 10000.000 0.000 0.242
71 213.00 1200.00 109 400 5.150 10000.000 0.000 0.242
72 216.00 1200.00 99 472 5.150 10000.000 0.000 0.242
73 219.00 1200.00 84 441 5.150 10000.000 0.000 0.242
74 222.00 1200.00 88 451 5.150 10000.000 0.000 0.242
75 225.00 1200.00 104 400 5.150 10000.000 0.000 0.242
76 228.00 1200.00 101 361 5.150 10000.000 0.000 0.242
77 231.00 1200.00 95 326 5.150 10000.000 0.000 0.242
78 234.00 1200.00 120 280 5.150 10000.000 0.000 0.242
79 237.00 1200.00 119 217 5.150 10000.000 0.000 0.242
80 240.00 1200.00 149 198 5.150 10000.000 0.000 0.242
81 243.00 1200.00 117 153 5.150 10000.000 0.000 0.242
82 246.00 1200.00 130 133 5.150 10000.000 0.000 0.242
83 249.00 1200.00 107 157 5.150 10000.000 0.000 0.242
84 252.00 1200.00 123 196 5.150 10000.000 0.000 0.242
85 255.00 1200.00 137 239 5.150 10000.000 0.000 0.242
86 258.00 1200.00 95 219 5.150 10000.000 0.000 0.242
87 261.00 1200.00 90 263 5.150 10000.000 0.000 0.242
88 264.00 1200.00 101 241 5.150 10000.000 0.000 0.242
89 267.00 1200.00 88 233 5.150 10000.000 0.000 0.242
90 270.00 1200.00 89 254 5.150 10000.000 0.000 0.242
91 273.00 1200.00 73 223 5.150 10000.000 0.000 0.242
92 276.00 1200.00 86 196 5.150 10000.000 0.000 0.242
93 279.00 1200.00 94 212 5.150 10000.000 0.000 0.242
94 282.00 1200.00 84 159 5.150 10000.000 0.000 0.242
95 285.00 1200.00 93 143 5.150 10000.000 0.000 0.242
96 288.00 1200.00 114 144 5.150 10000.000 0.000 0.242
97 291.00 1200.00 120 169 5.150 10000.000 0.000 0.242
98 294.00 1200.00 136 240 5.150 10000.000 0.000 0.242
99 297.00 1200.00 127 269 5.150 10000.000 0.000 0.242
100 300.00 1200.00 123 354 5.150 10000.000 0.000 0.242
101 303.00 1200.00 123 336 5.150 10000.000 0.000 0.242
102 306.00 1200.00 125 402 5.150 10000.000 0.000 0.242
103 309.00 1200.00 100 441 5.150 10000.000 0.000 0.242
104 312.00 1200.00 109 462 5.150 10000.000 0.000 0.242
105 315.00 1200.00 107 478 5.150 10000.000 0.000 0.242
106 318.00 1200.00 99 450 5.150 10000.000 0.000 0.242
107 321.00 1200.00 110 442 5.150 10000.000 0.000 0.242
108 324.00 1200.00 101 408 5.150 10000.000 0.000 0.242
109 327.00 1200.00 116 362 5.150 10000.000 0.000 0.242
110 330.00 1200.00 132 376 5.150 10000.000 0.000 0.242
111 333.00 1200.00 151 301 5.150 10000.000 0.000 0.242
112 336.00 1200.00 130 246 5.150 10000.000 0.000 0.242
113 339.00 1200.00 129 206 5.150 10000.000 0.000 0.242
114 342.00 1200.00 116 150 5.150 10000.000 0.000 0.242
115 345.00 1200.00 107 127 5.150 10000.000 0.000 0.242
116 348.00 1200.00 107 150 5.150 10000.000 0.000 0.242
117 351.00 1200.00 116 147 5.150 10000.000 0.000 0.242
118 354.00 1200.00 95 171 5.150 10000.000 0.000 0.242
119 357.00 1200.00 72 164 5.150 10000.000 0.000 0.242
120 360.00 1200.00 96 229 5.150 10000.000 0.000 0.242
121 363.00 1200.00 105 221 5.150 10000.000 0.000 0.242
122 366.00 1200.00 105 243 5.150 10000.000 0.000 0.242
123 369.00 1200.00 119 214 5.150 10000.000 0.000 0.242
124 372.00 1200.00 161 215 5.150 10000.000 0.000 0.242
125 375.00 1200.00 153 186 5.150 10000.000 0.000 0.242
126 378.00 1200.00 141 179 5.150 10000.000 0.000 0.242
127 381.00 1200.00 185 152 5.150 10000.000 0.000 0.242
128 384.00 1200.00 173 136 5.150 10000.000 0.000 0.242
129 387.00 1200.00 172 162 5.150 10000.000 0.000 0.242
130 390.00 1200.00 174 193 5.150 10000.000 0.000 0.242
131 393.00 1200.00 156 212 5.150 10000.000 0.000 0.242
132 396.00 1200.00 149 270 5.150 10000.000 0.000 0.242
133 399.00 1200.00 125 320 5.150 10000.000 0.000 0.242
134 402.00 1200.00 127 349 5.150 10000.000 0.000 0.242
135 405.00 1200.00 136 424 5.150 10000.000 0.000 0.242
136 408.00 1200.00 105 415 5.150 10000.000 0.000 0.242
137 411.00 1200.00 102 420 5.150 10000.000 0.000 0.242
138 414.00 1200.00 102 397 5.150 10000.000 0.000 0.242
139 417.00 1200.00 87 345 5.150 10000.000 0.000 0.242
140 420.00 1200.00 94 287 5.150 10000.000 0.000 0.242
141 423.00 1200.00 105 230 5.150 10000.000 0.000 0.242
