# BinNR microsec tot-time (s)  O-Beam AUX Ampl(V) f(Hz) phase(deg) chi(pos)
0 0.00 1200.00 116 222 3.320 10000.000 0.000 0.703
1 3.00 1200.00 250 419 3.320 10000.000 0.000 0.703
2 6.00 1200.00 205 408 3.320 10000.000 0.000 0.703
3 9.00 1200.00 246 394 3.320 10000.000 0.000 0.703
4 12.00 1200.00 238 359 3.320 10000.000 0.000 0.703
5 15.00 1200.00 228 302 3.320 10000.000 0.000 0.703
6 18.00 1200.00 218 231 3.320 10000.000 0.000 0.703
7 21.00 1200.00 220 220 3.320 10000.000 0.000 0.703
8 24.00 1200.00 187 188 3.320 10000.000 0.000 0.703
9 27.00 1200.00 204 169 3.320 10000.000 0.000 0.703
10 30.00 1200.00 168 192 3.320 10000.000 0.000 0.703
11 33.00 1200.00 187 213 3.320 10000.000 0.000 0.703
12 36.00 1200.00 149 263 3.320 10000.000 0.000 0.703
13 39.00 1200.00 131 314 3.320 10000.000 0.000 0.703
14 42.00 1200.00 128 370 3.320 10000.000 0.000 0.703
15 45.00 1200.00 122 402 3.320 10000.000 0.000 0.703
16 48.00 1200.00 106 466 3.320 10000.000 0.000 0.703
17 51.00 1200.00 101 561 3.320 10000.000 0.000 0.703
18 54.00 1200.00 108 569 3.320 10000.000 0.000 0.703
19 57.00 1200.00 122 530 3.320 10000.000 0.000 0.703
20 60.00 1200.00 132 582 3.320 10000.000 0.000 0.703
21 63.00 1200.00 154 613 3.320 10000.000 0.000 0.703
22 66.00 1200.00 157 588 3.320 10000.000 0.000 0.703
23 69.00 1200.00 152 604 3.320 10000.000 0.000 0.703
24 72.00 1200.00 189 603 3.320 10000.000 0.000 0.703
25 75.00 1200.00 174 588 3.320 10000.000 0.000 0.703
26 78.00 1200.00 217 534 3.320 10000.000 0.000 0.703
27 81.00 1200.00 214 509 3.320 10000.000 0.000 0.703
28 84.00 1200.00 213 480 3.320 10000.000 0.000 0.703
29 87.00 1200.00 228 390 3.320 10000.000 0.000 0.703
30 90.00 1200.00 211 399 3.320 10000.000 0.000 0.703
31 93.00 1200.00 222 335 3.320 10000.000 0.000 0.703
32 96.00 1200.00 235 290 3.320 10000.000 0.000 0.703
33 99.00 1200.00 244 215 3.320 10000.000 0.000 0.703
34 102.00 1200.00 235 180 3.320 10000.000 0.000 0.703
35 105.00 1200.00 218 155 3.320 10000.000 0.000 0.703
36 108.00 1200.00 221 168 3.320 10000.000 0.000 0.703
37 111.00 1200.00 231 151 3.320 10000.000 0.000 0.703
38 114.00 1200.00 250 138 3.320 10000.000 0.000 0.703
39 117.00 1200.00 223 120 3.320 10000.000 0.000 0.703
40 120.00 1200.00 227 153 3.320 10000.000 0.000 0.703
41 123.00 1200.00 214 169 3.320 10000.000 0.000 0.703
42 126.00 1200.00 179 177 3.320 10000.000 0.000 0.703
43 129.00 1200.00 172 195 3.320 10000.000 0.000 0.703
44 132.00 1200.00 163 229 3.320 10000.000 0.000 0.703
45 135.00 1200.00 168 282 3.320 10000.000 0.000 0.703
46 138.00 1200.00 151 301 3.320 10000.000 0.000 0.703
47 141.00 1200.00 139 413 3.320 10000.000 0.000 0.703
48 144.00 1200.00 131 445 3.320 10000.000 0.000 0.703
49 147.00 1200.00 130 486 3.320 10000.000 0.000 0.703
50 150.00 1200.00 111 507 3.320 10000.000 0.000 0.703
51 153.00 1200.00 109 570 3.320 10000.000 0.000 0.703
52 156.00 1200.00 122 580 3.320 10000.000 0.000 0.703
53 159.00 1200.00 111 583 3.320 10000.000 0.000 0.703
54 162.00 1200.00 123 582 3.320 10000.000 0.000 0.703
55 165.00 1200.00 133 565 3.320 10000.000 0.000 0.703
56 168.00 1200.00 142 569 3.320 10000.000 0.000 0.703
57 171.00 1200.00 177 628 3.320 10000.000 0.000 0.703
58 174.00 1200.00 197 579 3.320 10000.000 0.000 0.703
59 177.00 1200.00 210 583 3.320 10000.000 0.000 0.703
60 180.00 1200.00 236 554 3.320 10000.000 0.000 0.703
61 183.00 1200.00 209 527 3.320 10000.000 0.000 0.703
62 186.00 1200.00 222 522 3.320 10000.000 0.000 0.703
63 189.00 1200.00 225 378 3.320 10000.000 0.000 0.703
64 192.00 1200.00 236 353 3.320 10000.000 0.000 0.703
65 195.00 1200.00 226 265 3.320 10000.000 0.000 0.703
66 198.00 1200.00 260 252 3.320 10000.000 0.000 0.703
67 201.00 1200.00 240 195 3.320 10000.000 0.000 0.703
68 204.00 1200.00 236 187 3.320 10000.000 0.000 0.703
69 207.00 1200.00 248 142 3.320 10000.000 0.000 0.703
70 210.00 1200.00 251 155 3.320 10000.000 0.000 0.703
71 213.00 1200.00 263 130 3.320 10000.000 0.000 0.703
72 216.00 1200.00 222 146 3.320 10000.000 0.000 0.703
73 219.00 1200.00 219 127 3.320 10000.000 0.000 0.703
74 222.00 1200.00 211 164 3.320 10000.000 0.000 0.703
75 225.00 1200.00 211 157 3.320 10000.000 0.000 0.703
76 228.00 1200.00 230 173 3.320 10000.000 0.000 0.703
77 231.00 1200.00 188 222 3.320 10000.000 0.000 0.703
78 234.00 1200.00 156 245 3.320 10000.000 0.000 0.703
79 237.00 1200.00 136 316 3.320 10000.000 0.000 0.703
80 240.00 1200.00 169 344 3.320 10000.000 0.000 0.703
81 243.00 1200.00 136 469 3.320 10000.000 0.000 0.703
82 246.00 1200.00 144 497 3.320 10000.000 0.000 0.703
83 249.00 1200.00 150 522 3.320 10000.000 0.000 0.703
84 252.00 1200.00 129 537 3.320 10000.000 0.000 0.703
85 255.00 1200.00 156 548 3.320 10000.000 0.000 0.703
86 258.00 1200.00 158 599 3.320 10000.000 0.000 0.703
87 261.00 1200.00 183 575 3.320 10000.000 0.000 0.703
88 264.00 1200.00 184 610 3.320 10000.000 0.000 0.703
89 267.00 1200.00 216 578 3.320 10000.000 0.000 0.703
90 270.00 1200.00 202 613 3.320 10000.000 0.000 0.703
91 273.00 1200.00 214 566 3.320 10000.000 0.000 0.703
92 276.00 1200.00 218 573 3.320 10000.000 0.000 0.703
93 279.00 1200.00 197 528 3.320 10000.000 0.000 0.703
94 282.00 1200.00 184 542 3.320 10000.000 0.000 0.703
95 285.00 1200.00 179 507 3.320 10000.000 0.000 0.703
96 288.00 1200.00 159 471 3.320 10000.000 0.000 0.703
97 291.00 1200.00 141 387 3.320 10000.000 0.000 0.703
98 294.00 1200.00 161 297 3.320 10000.000 0.000 0.703
99 297.00 1200.00 138 250 3.320 10000.000 0.000 0.703
100 300.00 1200.00 152 213 3.320 10000.000 0.000 0.703
101 303.00 1200.00 164 195 3.320 10000.000 0.000 0.703
102 306.00 1200.00 178 144 3.320 10000.000 0.000 0.703
103 309.00 1200.00 176 148 3.320 10000.000 0.000 0.703
104 312.00 1200.00 224 140 3.320 10000.000 0.000 0.703
105 315.00 1200.00 182 122 3.320 10000.000 0.000 0.703
106 318.00 1200.00 222 145 3.320 10000.000 0.000 0.703
107 321.00 1200.00 231 152 3.320 10000.000 0.000 0.703
108 324.00 1200.00 235 156 3.320 10000.000 0.000 0.703
109 327.00 1200.00 215 191 3.320 10000.000 0.000 0.703
110 330.00 1200.00 227 224 3.320 10000.000 0.000 0.703
111 333.00 1200.00 256 232 3.320 10000.000 0.000 0.703
112 336.00 1200.00 237 319 3.320 10000.000 0.000 0.703
113 339.00 1200.00 258 349 3.320 10000.000 0.000 0.703
114 342.00 1200.00 266 447 3.320 10000.000 0.000 0.703
115 345.00 1200.00 253 455 3.320 10000.000 0.000 0.703
116 348.00 1200.00 228 482 3.320 10000.000 0.000 0.703
117 351.00 1200.00 237 504 3.320 10000.000 0.000 0.703
118 354.00 1200.00 227 560 3.320 10000.000 0.000 0.703
119 357.00 1200.00 206 587 3.320 10000.000 0.000 0.703
120 360.00 1200.00 228 576 3.320 10000.000 0.000 0.703
121 363.00 1200.00 159 574 3.320 10000.000 0.000 0.703
122 366.00 1200.00 165 607 3.320 10000.000 0.000 0.703
123 369.00 1200.00 148 549 3.320 10000.000 0.000 0.703
124 372.00 1200.00 154 554 3.320 10000.000 0.000 0.703
125 375.00 1200.00 138 548 3.320 10000.000 0.000 0.703
126 378.00 1200.00 131 572 3.320 10000.000 0.000 0.703
127 381.00 1200.00 130 510 3.320 10000.000 0.000 0.703
128 384.00 1200.00 138 490 3.320 10000.000 0.000 0.703
129 387.00 1200.00 117 404 3.320 10000.000 0.000 0.703
130 390.00 1200.00 111 401 3.320 10000.000 0.000 0.703
131 393.00 1200.00 119 326 3.320 10000.000 0.000 0.703
132 396.00 1200.00 130 291 3.320 10000.000 0.000 0.703
133 399.00 1200.00 120 236 3.320 10000.000 0.000 0.703
134 402.00 1200.00 176 206 3.320 10000.000 0.000 0.703
135 405.00 1200.00 135 164 3.320 10000.000 0.000 0.703
136 408.00 1200.00 181 173 3.320 10000.000 0.000 0.703
137 411.00 1200.00 165 189 3.320 10000.000 0.000 0.703
138 414.00 1200.00 212 165 3.320 10000.000 0.000 0.703
139 417.00 1200.00 232 237 3.320 10000.000 0.000 0.703
140 420.00 1200.00 253 254 3.320 10000.000 0.000 0.703
141 423.00 1200.00 216 295 3.320 10000.000 0.000 0.703
