# BinNR microsec tot-time (s)  O-Beam AUX Ampl(V) f(Hz) phase(deg) chi(pos)
0 0.00 1200.00 115 237 2.970 10000.000 0.000 -1.176
1 3.00 1200.00 269 465 2.970 10000.000 0.000 -1.176
2 6.00 1200.00 276 434 2.970 10000.000 0.000 -1.176
3 9.00 1200.00 251 449 2.970 10000.000 0.000 -1.176
4 12.00 1200.00 265 392 2.970 10000.000 0.000 -1.176
5 15.00 1200.00 238 332 2.970 10000.000 0.000 -1.176
6 18.00 1200.00 208 300 2.970 10000.000 0.000 -1.176
7 21.00 1200.00 247 237 2.970 10000.000 0.000 -1.176
8 24.00 1200.00 247 223 2.970 10000.000 0.000 -1.176
9 27.00 1200.00 219 231 2.970 10000.000 0.000 -1.176
10 30.00 1200.00 218 254 2.970 10000.000 0.000 -1.176
11 33.00 1200.00 207 285 2.970 10000.000 0.000 -1.176
12 36.00 1200.00 188 316 2.970 10000.000 0.000 -1.176
13 39.00 1200.00 144 344 2.970 10000.000 0.000 -1.176
14 42.00 1200.00 178 431 2.970 10000.000 0.000 -1.176
15 45.00 1200.00 153 472 2.970 10000.000 0.000 -1.176
16 48.00 1200.00 162 514 2.970 10000.000 0.000 -1.176
17 51.00 1200.00 156 565 2.970 10000.000 0.000 -1.176
18 54.00 1200.00 154 611 2.970 10000.000 0.000 -1.176
19 57.00 1200.00 126 601 2.970 10000.000 0.000 -1.176
20 60.00 1200.00 152 603 2.970 10000.000 0.000 -1.176
21 63.00 1200.00 157 584 2.970 10000.000 0.000 -1.176
22 66.00 1200.00 182 583 2.970 10000.000 0.000 -1.176
23 69.00 1200.00 200 656 2.970 10000.000 0.000 -1.176
24 72.00 1200.00 177 583 2.970 10000.000 0.000 -1.176
25 75.00 1200.00 205 566 2.970 10000.000 0.000 -1.176
26 78.00 1200.00 236 600 2.970 10000.000 0.000 -1.176
27 81.00 1200.00 230 545 2.970 10000.000 0.000 -1.176
28 84.00 1200.00 237 540 2.970 10000.000 0.000 -1.176
29 87.00 1200.00 242 486 2.970 10000.000 0.000 -1.176
30 90.00 1200.00 246 428 2.970 10000.000 0.000 -1.176
31 93.00 1200.00 252 422 2.970 10000.000 0.000 -1.176
32 96.00 1200.00 238 304 2.970 10000.000 0.000 -1.176
33 99.00 1200.00 249 261 2.970 10000.000 0.000 -1.176
34 102.00 1200.00 249 256 2.970 10000.000 0.000 -1.176
35 105.00 1200.00 235 226 2.970 10000.000 0.000 -1.176
36 108.00 1200.00 235 206 2.970 10000.000 0.000 -1.176
37 111.00 1200.00 241 192 2.970 10000.000 0.000 -1.176
38 114.00 1200.00 247 179 2.970 10000.000 0.000 -1.176
39 117.00 1200.00 233 161 2.970 10000.000 0.000 -1.176
40 120.00 1200.00 226 161 2.970 10000.000 0.000 -1.176
41 123.00 1200.00 233 211 2.970 10000.000 0.000 -1.176
42 126.00 1200.00 226 223 2.970 10000.000 0.000 -1.176
43 129.00 1200.00 216 279 2.970 10000.000 0.000 -1.176
44 132.00 1200.00 198 317 2.970 10000.000 0.000 -1.176
45 135.00 1200.00 176 373 2.970 10000.000 0.000 -1.176
46 138.00 1200.00 162 406 2.970 10000.000 0.000 -1.176
47 141.00 1200.00 166 396 2.970 10000.000 0.000 -1.176
48 144.00 1200.00 133 485 2.970 10000.000 0.000 -1.176
49 147.00 1200.00 161 526 2.970 10000.000 0.000 -1.176
50 150.00 1200.00 141 584 2.970 10000.000 0.000 -1.176
51 153.00 1200.00 142 590 2.970 10000.000 0.000 -1.176
52 156.00 1200.00 168 637 2.970 10000.000 0.000 -1.176
53 159.00 1200.00 156 590 2.970 10000.000 0.000 -1.176
54 162.00 1200.00 153 646 2.970 10000.000 0.000 -1.176
55 165.00 1200.00 175 605 2.970 10000.000 0.000 -1.176
56 168.00 1200.00 161 606 2.970 10000.000 0.000 -1.176
57 171.00 1200.00 180 636 2.970 10000.000 0.000 -1.176
58 174.00 1200.00 198 601 2.970 10000.000 0.000 -1.176
59 177.00 1200.00 227 592 2.970 10000.000 0.000 -1.176
60 180.00 1200.00 243 615 2.970 10000.000 0.000 -1.176
61 183.00 1200.00 225 528 2.970 10000.000 0.000 -1.176
62 186.00 1200.00 250 521 2.970 10000.000 0.000 -1.176
63 189.00 1200.00 234 467 2.970 10000.000 0.000 -1.176
64 192.00 1200.00 255 389 2.970 10000.000 0.000 -1.176
65 195.00 1200.00 237 327 2.970 10000.000 0.000 -1.176
66 198.00 1200.00 248 273 2.970 10000.000 0.000 -1.176
67 201.00 1200.00 260 256 2.970 10000.000 0.000 -1.176
68 204.00 1200.00 226 227 2.970 10000.000 0.000 -1.176
69 207.00 1200.00 263 174 2.970 10000.000 0.000 -1.176
70 210.00 1200.00 242 224 2.970 10000.000 0.000 -1.176
71 213.00 1200.00 260 206 2.970 10000.000 0.000 -1.176
72 216.00 1200.00 230 148 2.970 10000.000 0.000 -1.176
73 219.00 1200.00 248 174 2.970 10000.000 0.000 -1.176
74 222.00 1200.00 238 168 2.970 10000.000 0.000 -1.176
75 225.00 1200.00 209 197 2.970 10000.000 0.000 -1.176
76 228.00 1200.00 240 252 2.970 10000.000 0.000 -1.176
77 231.00 1200.00 195 260 2.970 10000.000 0.000 -1.176
78 234.00 1200.00 182 323 2.970 10000.000 0.000 -1.176
79 237.00 1200.00 156 353 2.970 10000.000 0.000 -1.176
80 240.00 1200.00 164 422 2.970 10000.000 0.000 -1.176
81 243.00 1200.00 167 482 2.970 10000.000 0.000 -1.176
82 246.00 1200.00 151 517 2.970 10000.000 0.000 -1.176
83 249.00 1200.00 161 559 2.970 10000.000 0.000 -1.176
84 252.00 1200.00 189 582 2.970 10000.000 0.000 -1.176
85 255.00 1200.00 196 629 2.970 10000.000 0.000 -1.176
86 258.00 1200.00 188 591 2.970 10000.000 0.000 -1.176
87 261.00 1200.00 193 556 2.970 10000.000 0.000 -1.176
88 264.00 1200.00 233 607 2.970 10000.000 0.000 -1.176
89 267.00 1200.00 219 617 2.970 10000.000 0.000 -1.176
90 270.00 1200.00 229 596 2.970 10000.000 0.000 -1.176
91 273.00 1200.00 222 585 2.970 10000.000 0.000 -1.176
92 276.00 1200.00 215 601 2.970 10000.000 0.000 -1.176
93 279.00 1200.00 216 560 2.970 10000.000 0.000 -1.176
94 282.00 1200.00 206 566 2.970 10000.000 0.000 -1.176
95 285.00 1200.00 196 472 2.970 10000.000 0.000 -1.176
96 288.00 1200.00 178 473 2.970 10000.000 0.000 -1.176
97 291.00 1200.00 178 409 2.970 10000.000 0.000 -1.176
98 294.00 1200.00 168 382 2.970 10000.000 0.000 -1.176
99 297.00 1200.00 156 306 2.970 10000.000 0.000 -1.176
100 300.00 1200.00 189 273 2.970 10000.000 0.000 -1.176
101 303.00 1200.00 202 242 2.970 10000.000 0.000 -1.176
102 306.00 1200.00 179 218 2.970 10000.000 0.000 -1.176
103 309.00 1200.00 198 210 2.970 10000.000 0.000 -1.176
104 312.00 1200.00 236 159 2.970 10000.000 0.000 -1.176
105 315.00 1200.00 213 213 2.970 10000.000 0.000 -1.176
106 318.00 1200.00 221 195 2.970 10000.000 0.000 -1.176
107 321.00 1200.00 221 190 2.970 10000.000 0.000 -1.176
108 324.00 1200.00 236 213 2.970 10000.000 0.000 -1.176
109 327.00 1200.00 233 214 2.970 10000.000 0.000 -1.176
110 330.00 1200.00 237 263 2.970 10000.000 0.000 -1.176
111 333.00 1200.00 247 284 2.970 10000.000 0.000 -1.176
112 336.00 1200.00 234 380 2.970 10000.000 0.000 -1.176
113 339.00 1200.00 255 406 2.970 10000.000 0.000 -1.176
114 342.00 1200.00 267 504 2.970 10000.000 0.000 -1.176
115 345.00 1200.00 234 478 2.970 10000.000 0.000 -1.176
116 348.00 1200.00 231 566 2.970 10000.000 0.000 -1.176
117 351.00 1200.00 251 507 2.970 10000.000 0.000 -1.176
118 354.00 1200.00 243 590 2.970 10000.000 0.000 -1.176
119 357.00 1200.00 242 625 2.970 10000.000 0.000 -1.176
120 360.00 1200.00 239 647 2.970 10000.000 0.000 -1.176
121 363.00 1200.00 181 620 2.970 10000.000 0.000 -1.176
122 366.00 1200.00 214 615 2.970 10000.000 0.000 -1.176
123 369.00 1200.00 173 599 2.970 10000.000 0.000 -1.176
124 372.00 1200.00 154 587 2.970 10000.000 0.000 -1.176
125 375.00 1200.00 153 594 2.970 10000.000 0.000 -1.176
126 378.00 1200.00 150 546 2.970 10000.000 0.000 -1.176
127 381.00 1200.00 159 570 2.970 10000.000 0.000 -1.176
128 384.00 1200.00 147 516 2.970 10000.000 0.000 -1.176
129 387.00 1200.00 145 501 2.970 10000.000 0.000 -1.176
130 390.00 1200.00 145 419 2.970 10000.000 0.000 -1.176
131 393.00 1200.00 135 351 2.970 10000.000 0.000 -1.176
132 396.00 1200.00 155 295 2.970 10000.000 0.000 -1.176
133 399.00 1200.00 161 268 2.970 10000.000 0.000 -1.176
134 402.00 1200.00 172 259 2.970 10000.000 0.000 -1.176
135 405.00 1200.00 205 236 2.970 10000.000 0.000 -1.176
136 408.00 1200.00 205 198 2.970 10000.000 0.000 -1.176
137 411.00 1200.00 218 203 2.970 10000.000 0.000 -1.176
138 414.00 1200.00 222 253 2.970 10000.000 0.000 -1.176
139 417.00 1200.00 247 293 2.970 10000.000 0.000 -1.176
140 420.00 1200.00 249 343 2.970 10000.000 0.000 -1.176
141 423.00 1200.00 235 358 2.970 10000.000 0.000 -1.176
