# BinNR microsec tot-time (s)  O-Beam AUX Ampl(V) f(Hz) phase(deg) chi(pos)
0 0.00 1200.00 77 275 4.960 10000.000 0.000 -0.670
1 3.00 1200.00 134 515 4.960 10000.000 0.000 -0.670
2 6.00 1200.00 139 484 4.960 10000.000 0.000 -0.670
3 9.00 1200.00 159 454 4.960 10000.000 0.000 -0.670
4 12.00 1200.00 180 457 4.960 10000.000 0.000 -0.670
5 15.00 1200.00 188 391 4.960 10000.000 0.000 -0.670
6 18.00 1200.00 193 347 4.960 10000.000 0.000 -0.670
7 21.00 1200.00 199 272 4.960 10000.000 0.000 -0.670
8 24.00 1200.00 204 261 4.960 10000.000 0.000 -0.670
9 27.00 1200.00 192 269 4.960 10000.000 0.000 -0.670
10 30.00 1200.00 218 245 4.960 10000.000 0.000 -0.670
11 33.00 1200.00 178 281 4.960 10000.000 0.000 -0.670
12 36.00 1200.00 169 359 4.960 10000.000 0.000 -0.670
13 39.00 1200.00 168 400 4.960 10000.000 0.000 -0.670
14 42.00 1200.00 147 455 4.960 10000.000 0.000 -0.670
15 45.00 1200.00 126 479 4.960 10000.000 0.000 -0.670
16 48.00 1200.00 112 482 4.960 10000.000 0.000 -0.670
17 51.00 1200.00 126 537 4.960 10000.000 0.000 -0.670
18 54.00 1200.00 151 466 4.960 10000.000 0.000 -0.670
19 57.00 1200.00 130 388 4.960 10000.000 0.000 -0.670
20 60.00 1200.00 142 388 4.960 10000.000 0.000 -0.670
21 63.00 1200.00 152 370 4.960 10000.000 0.000 -0.670
22 66.00 1200.00 176 385 4.960 10000.000 0.000 -0.670
23 69.00 1200.00 189 431 4.960 10000.000 0.000 -0.670
24 72.00 1200.00 206 394 4.960 10000.000 0.000 -0.670
25 75.00 1200.00 189 417 4.960 10000.000 0.000 -0.670
26 78.00 1200.00 215 435 4.960 10000.000 0.000 -0.670
27 81.00 1200.00 198 490 4.960 10000.000 0.000 -0.670
28 84.00 1200.00 198 479 4.960 10000.000 0.000 -0.670
29 87.00 1200.00 172 488 4.960 10000.000 0.000 -0.670
30 90.00 1200.00 183 449 4.960 10000.000 0.000 -0.670
31 93.00 1200.00 165 431 4.960 10000.000 0.000 -0.670
32 96.00 1200.00 157 391 4.960 10000.000 0.000 -0.670
33 99.00 1200.00 207 302 4.960 10000.000 0.000 -0.670
34 102.00 1200.00 166 265 4.960 10000.000 0.000 -0.670
35 105.00 1200.00 177 227 4.960 10000.000 0.000 -0.670
36 108.00 1200.00 175 206 4.960 10000.000 0.000 -0.670
37 111.00 1200.00 186 215 4.960 10000.000 0.000 -0.670
38 114.00 1200.00 204 213 4.960 10000.000 0.000 -0.670
39 117.00 1200.00 189 204 4.960 10000.000 0.000 -0.670
40 120.00 1200.00 199 200 4.960 10000.000 0.000 -0.670
41 123.00 1200.00 176 228 4.960 10000.000 0.000 -0.670
42 126.00 1200.00 205 250 4.960 10000.000 0.000 -0.670
43 129.00 1200.00 182 294 4.960 10000.000 0.000 -0.670
44 132.00 1200.00 169 335 4.960 10000.000 0.000 -0.670
45 135.00 1200.00 182 401 4.960 10000.000 0.000 -0.670
46 138.00 1200.00 161 429 4.960 10000.000 0.000 -0.670
47 141.00 1200.00 156 462 4.960 10000.000 0.000 -0.670
48 144.00 1200.00 161 465 4.960 10000.000 0.000 -0.670
49 147.00 1200.00 135 469 4.960 10000.000 0.000 -0.670
50 150.00 1200.00 132 473 4.960 10000.000 0.000 -0.670
51 153.00 1200.00 123 472 4.960 10000.000 0.000 -0.670
52 156.00 1200.00 136 430 4.960 10000.000 0.000 -0.670
53 159.00 1200.00 147 386 4.960 10000.000 0.000 -0.670
54 162.00 1200.00 156 426 4.960 10000.000 0.000 -0.670
55 165.00 1200.00 158 411 4.960 10000.000 0.000 -0.670
56 168.00 1200.00 181 400 4.960 10000.000 0.000 -0.670
57 171.00 1200.00 194 394 4.960 10000.000 0.000 -0.670
58 174.00 1200.00 206 407 4.960 10000.000 0.000 -0.670
59 177.00 1200.00 202 409 4.960 10000.000 0.000 -0.670
60 180.00 1200.00 183 448 4.960 10000.000 0.000 -0.670
61 183.00 1200.00 203 436 4.960 10000.000 0.000 -0.670
62 186.00 1200.00 200 517 4.960 10000.000 0.000 -0.670
63 189.00 1200.00 172 504 4.960 10000.000 0.000 -0.670
64 192.00 1200.00 163 466 4.960 10000.000 0.000 -0.670
65 195.00 1200.00 162 364 4.960 10000.000 0.000 -0.670
66 198.00 1200.00 155 294 4.960 10000.000 0.000 -0.670
67 201.00 1200.00 141 295 4.960 10000.000 0.000 -0.670
68 204.00 1200.00 168 280 4.960 10000.000 0.000 -0.670
69 207.00 1200.00 172 229 4.960 10000.000 0.000 -0.670
70 210.00 1200.00 159 218 4.960 10000.000 0.000 -0.670
71 213.00 1200.00 164 193 4.960 10000.000 0.000 -0.670
72 216.00 1200.00 202 195 4.960 10000.000 0.000 -0.670
73 219.00 1200.00 205 205 4.960 10000.000 0.000 -0.670
74 222.00 1200.00 211 198 4.960 10000.000 0.000 -0.670
75 225.00 1200.00 217 237 4.960 10000.000 0.000 -0.670
76 228.00 1200.00 183 273 4.960 10000.000 0.000 -0.670
77 231.00 1200.00 209 303 4.960 10000.000 0.000 -0.670
78 234.00 1200.00 191 384 4.960 10000.000 0.000 -0.670
79 237.00 1200.00 193 428 4.960 10000.000 0.000 -0.670
80 240.00 1200.00 165 455 4.960 10000.000 0.000 -0.670
81 243.00 1200.00 130 512 4.960 10000.000 0.000 -0.670
82 246.00 1200.00 170 500 4.960 10000.000 0.000 -0.670
83 249.00 1200.00 155 508 4.960 10000.000 0.000 -0.670
84 252.00 1200.00 182 472 4.960 10000.000 0.000 -0.670
85 255.00 1200.00 185 426 4.960 10000.000 0.000 -0.670
86 258.00 1200.00 203 425 4.960 10000.000 0.000 -0.670
87 261.00 1200.00 189 373 4.960 10000.000 0.000 -0.670
88 264.00 1200.00 189 379 4.960 10000.000 0.000 -0.670
89 267.00 1200.00 207 366 4.960 10000.000 0.000 -0.670
90 270.00 1200.00 244 350 4.960 10000.000 0.000 -0.670
91 273.00 1200.00 224 408 4.960 10000.000 0.000 -0.670
92 276.00 1200.00 199 459 4.960 10000.000 0.000 -0.670
93 279.00 1200.00 196 435 4.960 10000.000 0.000 -0.670
94 282.00 1200.00 217 533 4.960 10000.000 0.000 -0.670
95 285.00 1200.00 186 449 4.960 10000.000 0.000 -0.670
96 288.00 1200.00 216 487 4.960 10000.000 0.000 -0.670
97 291.00 1200.00 179 459 4.960 10000.000 0.000 -0.670
98 294.00 1200.00 200 397 4.960 10000.000 0.000 -0.670
99 297.00 1200.00 167 354 4.960 10000.000 0.000 -0.670
100 300.00 1200.00 177 309 4.960 10000.000 0.000 -0.670
101 303.00 1200.00 176 240 4.960 10000.000 0.000 -0.670
102 306.00 1200.00 198 253 4.960 10000.000 0.000 -0.670
103 309.00 1200.00 194 208 4.960 10000.000 0.000 -0.670
104 312.00 1200.00 173 211 4.960 10000.000 0.000 -0.670
105 315.00 1200.00 197 168 4.960 10000.000 0.000 -0.670
106 318.00 1200.00 190 189 4.960 10000.000 0.000 -0.670
107 321.00 1200.00 187 203 4.960 10000.000 0.000 -0.670
108 324.00 1200.00 210 195 4.960 10000.000 0.000 -0.670
109 327.00 1200.00 162 275 4.960 10000.000 0.000 -0.670
110 330.00 1200.00 144 328 4.960 10000.000 0.000 -0.670
111 333.00 1200.00 144 353 4.960 10000.000 0.000 -0.670
112 336.00 1200.00 169 390 4.960 10000.000 0.000 -0.670
113 339.00 1200.00 145 483 4.960 10000.000 0.000 -0.670
114 342.00 1200.00 156 491 4.960 10000.000 0.000 -0.670
115 345.00 1200.00 152 515 4.960 10000.000 0.000 -0.670
116 348.00 1200.00 201 515 4.960 10000.000 0.000 -0.670
117 351.00 1200.00 186 488 4.960 10000.000 0.000 -0.670
118 354.00 1200.00 210 471 4.960 10000.000 0.000 -0.670
119 357.00 1200.00 207 427 4.960 10000.000 0.000 -0.670
120 360.00 1200.00 191 378 4.960 10000.000 0.000 -0.670
121 363.00 1200.00 202 422 4.960 10000.000 0.000 -0.670
122 366.00 1200.00 197 386 4.960 10000.000 0.000 -0.670
123 369.00 1200.00 161 385 4.960 10000.000 0.000 -0.670
124 372.00 1200.00 160 427 4.960 10000.000 0.000 -0.670
125 375.00 1200.00 148 435 4.960 10000.000 0.000 -0.670
126 378.00 1200.00 150 475 4.960 10000.000 0.000 -0.670
127 381.00 1200.00 140 478 4.960 10000.000 0.000 -0.670
128 384.00 1200.00 145 566 4.960 10000.000 0.000 -0.670
129 387.00 1200.00 134 469 4.960 10000.000 0.000 -0.670
130 390.00 1200.00 163 512 4.960 10000.000 0.000 -0.670
131 393.00 1200.00 147 442 4.960 10000.000 0.000 -0.670
132 396.00 1200.00 147 355 4.960 10000.000 0.000 -0.670
133 399.00 1200.00 147 307 4.960 10000.000 0.000 -0.670
134 402.00 1200.00 173 263 4.960 10000.000 0.000 -0.670
135 405.00 1200.00 178 254 4.960 10000.000 0.000 -0.670
136 408.00 1200.00 198 255 4.960 10000.000 0.000 -0.670
137 411.00 1200.00 198 222 4.960 10000.000 0.000 -0.670
138 414.00 1200.00 198 293 4.960 10000.000 0.000 -0.670
139 417.00 1200.00 178 312 4.960 10000.000 0.000 -0.670
140 420.00 1200.00 177 331 4.960 10000.000 0.000 -0.670
141 423.00 1200.00 213 432 4.960 10000.000 0.000 -0.670
