# BinNR microsec tot-time (s)  O-Beam AUX Ampl(V) f(Hz) phase(deg) chi(pos)
0 0.00 1200.01 124 208 2.660 10000.000 0.000 -1.000
1 3.00 1200.01 234 464 2.660 10000.000 0.000 -1.000
2 6.00 1200.01 245 472 2.660 10000.000 0.000 -1.000
3 9.00 1200.01 228 409 2.660 10000.000 0.000 -1.000
4 12.00 1200.01 230 403 2.660 10000.000 0.000 -1.000
5 15.00 1200.01 250 364 2.660 10000.000 0.000 -1.000
6 18.00 1200.01 252 296 2.660 10000.000 0.000 -1.000
7 21.00 1200.01 245 257 2.660 10000.000 0.000 -1.000
8 24.00 1200.01 251 243 2.660 10000.000 0.000 -1.000
9 27.00 1200.01 231 238 2.660 10000.000 0.000 -1.000
10 30.00 1200.01 213 237 2.660 10000.000 0.000 -1.000
11 33.00 1200.01 194 285 2.660 10000.000 0.000 -1.000
12 36.00 1200.01 199 327 2.660 10000.000 0.000 -1.000
13 39.00 1200.01 178 349 2.660 10000.000 0.000 -1.000
14 42.00 1200.01 161 429 2.660 10000.000 0.000 -1.000
15 45.00 1200.01 137 465 2.660 10000.000 0.000 -1.000
16 48.00 1200.01 153 553 2.660 10000.000 0.000 -1.000
17 51.00 1200.01 167 534 2.660 10000.000 0.000 -1.000
18 54.00 1200.01 150 595 2.660 10000.000 0.000 -1.000
19 57.00 1200.01 138 603 2.660 10000.000 0.000 -1.000
20 60.00 1200.01 159 547 2.660 10000.000 0.000 -1.000
21 63.00 1200.01 171 588 2.660 10000.000 0.000 -1.000
22 66.00 1200.01 169 629 2.660 10000.000 0.000 -1.000
23 69.00 1200.01 153 629 2.660 10000.000 0.000 -1.000
24 72.00 1200.01 203 634 2.660 10000.000 0.000 -1.000
25 75.00 1200.01 225 533 2.660 10000.000 0.000 -1.000
26 78.00 1200.01 214 606 2.660 10000.000 0.000 -1.000
27 81.00 1200.01 241 592 2.660 10000.000 0.000 -1.000
28 84.00 1200.01 220 517 2.660 10000.000 0.000 -1.000
29 87.00 1200.01 219 452 2.660 10000.000 0.000 -1.000
30 90.00 1200.01 273 415 2.660 10000.000 0.000 -1.000
31 93.00 1200.01 240 406 2.660 10000.000 0.000 -1.000
32 96.00 1200.01 254 343 2.660 10000.000 0.000 -1.000
33 99.00 1200.01 245 298 2.660 10000.000 0.000 -1.000
34 102.00 1200.01 235 260 2.660 10000.000 0.000 -1.000
35 105.00 1200.01 258 244 2.660 10000.000 0.000 -1.000
36 108.00 1200.01 270 198 2.660 10000.000 0.000 -1.000
37 111.00 1200.01 276 198 2.660 10000.000 0.000 -1.000
38 114.00 1200.01 271 219 2.660 10000.000 0.000 -1.000
39 117.00 1200.01 241 192 2.660 10000.000 0.000 -1.000
40 120.00 1200.01 226 186 2.660 10000.000 0.000 -1.000
41 123.00 1200.01 210 208 2.660 10000.000 0.000 -1.000
42 126.00 1200.01 212 247 2.660 10000.000 0.000 -1.000
43 129.00 1200.01 195 271 2.660 10000.000 0.000 -1.000
44 132.00 1200.01 196 313 2.660 10000.000 0.000 -1.000
45 135.00 1200.01 172 379 2.660 10000.000 0.000 -1.000
46 138.00 1200.01 203 401 2.660 10000.000 0.000 -1.000
47 141.00 1200.01 164 428 2.660 10000.000 0.000 -1.000
48 144.00 1200.01 151 479 2.660 10000.000 0.000 -1.000
49 147.00 1200.01 146 485 2.660 10000.000 0.000 -1.000
50 150.00 1200.01 161 531 2.660 10000.000 0.000 -1.000
51 153.00 1200.01 162 579 2.660 10000.000 0.000 -1.000
52 156.00 1200.01 148 610 2.660 10000.000 0.000 -1.000
53 159.00 1200.01 150 594 2.660 10000.000 0.000 -1.000
54 162.00 1200.01 166 662 2.660 10000.000 0.000 -1.000
55 165.00 1200.01 153 623 2.660 10000.000 0.000 -1.000
56 168.00 1200.01 152 619 2.660 10000.000 0.000 -1.000
57 171.00 1200.01 186 620 2.660 10000.000 0.000 -1.000
58 174.00 1200.01 178 601 2.660 10000.000 0.000 -1.000
59 177.00 1200.01 200 603 2.660 10000.000 0.000 -1.000
60 180.00 1200.01 253 538 2.660 10000.000 0.000 -1.000
61 183.00 1200.01 243 520 2.660 10000.000 0.000 -1.000
62 186.00 1200.01 246 500 2.660 10000.000 0.000 -1.000
63 189.00 1200.01 202 469 2.660 10000.000 0.000 -1.000
64 192.00 1200.01 268 387 2.660 10000.000 0.000 -1.000
65 195.00 1200.01 257 336 2.660 10000.000 0.000 -1.000
66 198.00 1200.01 255 303 2.660 10000.000 0.000 -1.000
67 201.00 1200.01 258 280 2.660 10000.000 0.000 -1.000
68 204.00 1200.01 253 251 2.660 10000.000 0.000 -1.000
69 207.00 1200.01 260 201 2.660 10000.000 0.000 -1.000
70 210.00 1200.01 258 204 2.660 10000.000 0.000 -1.000
71 213.00 1200.01 252 189 2.660 10000.000 0.000 -1.000
72 216.00 1200.01 233 190 2.660 10000.000 0.000 -1.000
73 219.00 1200.01 242 196 2.660 10000.000 0.000 -1.000
74 222.00 1200.01 230 201 2.660 10000.000 0.000 -1.000
75 225.00 1200.01 229 203 2.660 10000.000 0.000 -1.000
76 228.00 1200.01 199 273 2.660 10000.000 0.000 -1.000
77 231.00 1200.01 184 317 2.660 10000.000 0.000 -1.000
78 234.00 1200.01 197 322 2.660 10000.000 0.000 -1.000
79 237.00 1200.01 168 345 2.660 10000.000 0.000 -1.000
80 240.00 1200.01 184 447 2.660 10000.000 0.000 -1.000
81 243.00 1200.01 168 477 2.660 10000.000 0.000 -1.000
82 246.00 1200.01 177 500 2.660 10000.000 0.000 -1.000
83 249.00 1200.01 185 552 2.660 10000.000 0.000 -1.000
84 252.00 1200.01 173 573 2.660 10000.000 0.000 -1.000
85 255.00 1200.01 176 624 2.660 10000.000 0.000 -1.000
86 258.00 1200.01 183 669 2.660 10000.000 0.000 -1.000
87 261.00 1200.01 199 642 2.660 10000.000 0.000 -1.000
88 264.00 1200.01 228 623 2.660 10000.000 0.000 -1.000
89 267.00 1200.01 214 598 2.660 10000.000 0.000 -1.000
90 270.00 1200.01 214 588 2.660 10000.000 0.000 -1.000
91 273.00 1200.01 211 584 2.660 10000.000 0.000 -1.000
92 276.00 1200.01 201 576 2.660 10000.000 0.000 -1.000
93 279.00 1200.01 234 554 2.660 10000.000 0.000 -1.000
94 282.00 1200.01 199 544 2.660 10000.000 0.000 -1.000
95 285.00 1200.01 223 463 2.660 10000.000 0.000 -1.000
96 288.00 1200.01 197 431 2.660 10000.000 0.000 -1.000
97 291.00 1200.01 178 416 2.660 10000.000 0.000 -1.000
98 294.00 1200.01 186 336 2.660 10000.000 0.000 -1.000
99 297.00 1200.01 174 309 2.660 10000.000 0.000 -1.000
100 300.00 1200.01 168 295 2.660 10000.000 0.000 -1.000
101 303.00 1200.01 184 240 2.660 10000.000 0.000 -1.000
102 306.00 1200.01 201 228 2.660 10000.000 0.000 -1.000
103 309.00 1200.01 194 183 2.660 10000.000 0.000 -1.000
104 312.00 1200.01 210 187 2.660 10000.000 0.000 -1.000
105 315.00 1200.01 238 182 2.660 10000.000 0.000 -1.000
106 318.00 1200.01 209 195 2.660 10000.000 0.000 -1.000
107 321.00 1200.01 259 167 2.660 10000.000 0.000 -1.000
108 324.00 1200.01 227 202 2.660 10000.000 0.000 -1.000
109 327.00 1200.01 218 225 2.660 10000.000 0.000 -1.000
110 330.00 1200.01 247 282 2.660 10000.000 0.000 -1.000
111 333.00 1200.01 264 281 2.660 10000.000 0.000 -1.000
112 336.00 1200.01 260 330 2.660 10000.000 0.000 -1.000
113 339.00 1200.01 237 390 2.660 10000.000 0.000 -1.000
114 342.00 1200.01 307 463 2.660 10000.000 0.000 -1.000
115 345.00 1200.01 253 465 2.660 10000.000 0.000 -1.000
116 348.00 1200.01 253 567 2.660 10000.000 0.000 -1.000
117 351.00 1200.01 239 566 2.660 10000.000 0.000 -1.000
118 354.00 1200.01 241 552 2.660 10000.000 0.000 -1.000
119 357.00 1200.01 217 593 2.660 10000.000 0.000 -1.000
120 360.00 1200.01 205 639 2.660 10000.000 0.000 -1.000
121 363.00 1200.01 210 578 2.660 10000.000 0.000 -1.000
122 366.00 1200.01 188 642 2.660 10000.000 0.000 -1.000
123 369.00 1200.01 183 604 2.660 10000.000 0.000 -1.000
124 372.00 1200.01 190 638 2.660 10000.000 0.000 -1.000
125 375.00 1200.01 160 535 2.660 10000.000 0.000 -1.000
126 378.00 1200.01 179 543 2.660 10000.000 0.000 -1.000
127 381.00 1200.01 160 543 2.660 10000.000 0.000 -1.000
128 384.00 1200.01 166 505 2.660 10000.000 0.000 -1.000
129 387.00 1200.01 163 474 2.660 10000.000 0.000 -1.000
130 390.00 1200.01 150 397 2.660 10000.000 0.000 -1.000
131 393.00 1200.01 155 396 2.660 10000.000 0.000 -1.000
132 396.00 1200.01 185 370 2.660 10000.000 0.000 -1.000
133 399.00 1200.01 200 274 2.660 10000.000 0.000 -1.000
134 402.00 1200.01 204 265 2.660 10000.000 0.000 -1.000
135 405.00 1200.01 198 225 2.660 10000.000 0.000 -1.000
136 408.00 1200.01 183 238 2.660 10000.000 0.000 -1.000
137 411.00 1200.01 223 227 2.660 10000.000 0.000 -1.000
138 414.00 1200.01 255 244 2.660 10000.000 0.000 -1.000
139 417.00 1200.01 216 288 2.660 10000.000 0.000 -1.000
140 420.00 1200.01 215 339 2.660 10000.000 0.000 -1.000
141 423.00 1200.01 225 397 2.660 10000.000 0.000 -1.000
