# BinNR microsec tot-time (s)  O-Beam AUX Ampl(V) f(Hz) phase(deg) chi(pos)
0 0.00 1200.00 112 288 2.000 10000.000 0.000 -0.516
1 3.00 1200.00 218 660 2.000 10000.000 0.000 -0.516
2 6.00 1200.00 245 697 2.000 10000.000 0.000 -0.516
3 9.00 1200.00 293 682 2.000 10000.000 0.000 -0.516
4 12.00 1200.00 314 765 2.000 10000.000 0.000 -0.516
5 15.00 1200.00 248 802 2.000 10000.000 0.000 -0.516
6 18.00 1200.00 309 916 2.000 10000.000 0.000 -0.516
7 21.00 1200.00 358 948 2.000 10000.000 0.000 -0.516
8 24.00 1200.00 356 1100 2.000 10000.000 0.000 -0.516
9 27.00 1200.00 363 1101 2.000 10000.000 0.000 -0.516
10 30.00 1200.00 353 1058 2.000 10000.000 0.000 -0.516
11 33.00 1200.00 370 1075 2.000 10000.000 0.000 -0.516
12 36.00 1200.00 416 1058 2.000 10000.000 0.000 -0.516
13 39.00 1200.00 384 1097 2.000 10000.000 0.000 -0.516
14 42.00 1200.00 384 1120 2.000 10000.000 0.000 -0.516
15 45.00 1200.00 369 1079 2.000 10000.000 0.000 -0.516
16 48.00 1200.00 377 1151 2.000 10000.000 0.000 -0.516
17 51.00 1200.00 388 1138 2.000 10000.000 0.000 -0.516
18 54.00 1200.00 367 1119 2.000 10000.000 0.000 -0.516
19 57.00 1200.00 347 1064 2.000 10000.000 0.000 -0.516
20 60.00 1200.00 361 1197 2.000 10000.000 0.000 -0.516
21 63.00 1200.00 342 1079 2.000 10000.000 0.000 -0.516
22 66.00 1200.00 336 1025 2.000 10000.000 0.000 -0.516
23 69.00 1200.00 309 980 2.000 10000.000 0.000 -0.516
24 72.00 1200.00 300 1035 2.000 10000.000 0.000 -0.516
25 75.00 1200.00 243 895 2.000 10000.000 0.000 -0.516
26 78.00 1200.00 232 931 2.000 10000.000 0.000 -0.516
27 81.00 1200.00 212 806 2.000 10000.000 0.000 -0.516
28 84.00 1200.00 207 756 2.000 10000.000 0.000 -0.516
29 87.00 1200.00 190 685 2.000 10000.000 0.000 -0.516
30 90.00 1200.00 216 656 2.000 10000.000 0.000 -0.516
31 93.00 1200.00 181 579 2.000 10000.000 0.000 -0.516
32 96.00 1200.00 186 534 2.000 10000.000 0.000 -0.516
33 99.00 1200.00 193 549 2.000 10000.000 0.000 -0.516
34 102.00 1200.00 205 518 2.000 10000.000 0.000 -0.516
35 105.00 1200.00 244 606 2.000 10000.000 0.000 -0.516
36 108.00 1200.00 250 657 2.000 10000.000 0.000 -0.516
37 111.00 1200.00 264 653 2.000 10000.000 0.000 -0.516
38 114.00 1200.00 295 752 2.000 10000.000 0.000 -0.516
39 117.00 1200.00 298 829 2.000 10000.000 0.000 -0.516
40 120.00 1200.00 350 812 2.000 10000.000 0.000 -0.516
41 123.00 1200.00 316 926 2.000 10000.000 0.000 -0.516
42 126.00 1200.00 395 991 2.000 10000.000 0.000 -0.516
43 129.00 1200.00 361 1037 2.000 10000.000 0.000 -0.516
44 132.00 1200.00 397 1010 2.000 10000.000 0.000 -0.516
45 135.00 1200.00 388 1062 2.000 10000.000 0.000 -0.516
46 138.00 1200.00 371 1152 2.000 10000.000 0.000 -0.516
47 141.00 1200.00 346 1105 2.000 10000.000 0.000 -0.516
48 144.00 1200.00 367 1100 2.000 10000.000 0.000 -0.516
49 147.00 1200.00 366 1084 2.000 10000.000 0.000 -0.516
50 150.00 1200.00 390 1122 2.000 10000.000 0.000 -0.516
51 153.00 1200.00 336 1181 2.000 10000.000 0.000 -0.516
52 156.00 1200.00 363 1105 2.000 10000.000 0.000 -0.516
53 159.00 1200.00 368 1106 2.000 10000.000 0.000 -0.516
54 162.00 1200.00 333 1100 2.000 10000.000 0.000 -0.516
55 165.00 1200.00 343 1054 2.000 10000.000 0.000 -0.516
56 168.00 1200.00 318 1070 2.000 10000.000 0.000 -0.516
57 171.00 1200.00 271 994 2.000 10000.000 0.000 -0.516
58 174.00 1200.00 253 975 2.000 10000.000 0.000 -0.516
59 177.00 1200.00 280 894 2.000 10000.000 0.000 -0.516
60 180.00 1200.00 248 825 2.000 10000.000 0.000 -0.516
61 183.00 1200.00 234 777 2.000 10000.000 0.000 -0.516
62 186.00 1200.00 237 728 2.000 10000.000 0.000 -0.516
63 189.00 1200.00 214 620 2.000 10000.000 0.000 -0.516
64 192.00 1200.00 204 615 2.000 10000.000 0.000 -0.516
65 195.00 1200.00 197 555 2.000 10000.000 0.000 -0.516
66 198.00 1200.00 204 578 2.000 10000.000 0.000 -0.516
67 201.00 1200.00 173 589 2.000 10000.000 0.000 -0.516
68 204.00 1200.00 226 600 2.000 10000.000 0.000 -0.516
69 207.00 1200.00 232 597 2.000 10000.000 0.000 -0.516
70 210.00 1200.00 240 625 2.000 10000.000 0.000 -0.516
71 213.00 1200.00 260 730 2.000 10000.000 0.000 -0.516
72 216.00 1200.00 298 765 2.000 10000.000 0.000 -0.516
73 219.00 1200.00 318 838 2.000 10000.000 0.000 -0.516
74 222.00 1200.00 376 955 2.000 10000.000 0.000 -0.516
75 225.00 1200.00 331 978 2.000 10000.000 0.000 -0.516
76 228.00 1200.00 374 989 2.000 10000.000 0.000 -0.516
77 231.00 1200.00 374 1057 2.000 10000.000 0.000 -0.516
78 234.00 1200.00 346 1047 2.000 10000.000 0.000 -0.516
79 237.00 1200.00 362 1114 2.000 10000.000 0.000 -0.516
80 240.00 1200.00 433 1099 2.000 10000.000 0.000 -0.516
81 243.00 1200.00 365 1113 2.000 10000.000 0.000 -0.516
82 246.00 1200.00 395 1117 2.000 10000.000 0.000 -0.516
83 249.00 1200.00 418 1148 2.000 10000.000 0.000 -0.516
84 252.00 1200.00 410 1125 2.000 10000.000 0.000 -0.516
85 255.00 1200.00 372 1019 2.000 10000.000 0.000 -0.516
86 258.00 1200.00 352 1151 2.000 10000.000 0.000 -0.516
87 261.00 1200.00 346 1080 2.000 10000.000 0.000 -0.516
88 264.00 1200.00 356 1131 2.000 10000.000 0.000 -0.516
89 267.00 1200.00 328 1093 2.000 10000.000 0.000 -0.516
90 270.00 1200.00 328 1086 2.000 10000.000 0.000 -0.516
91 273.00 1200.00 290 967 2.000 10000.000 0.000 -0.516
92 276.00 1200.00 282 983 2.000 10000.000 0.000 -0.516
93 279.00 1200.00 255 846 2.000 10000.000 0.000 -0.516
94 282.00 1200.00 287 841 2.000 10000.000 0.000 -0.516
95 285.00 1200.00 206 729 2.000 10000.000 0.000 -0.516
96 288.00 1200.00 221 633 2.000 10000.000 0.000 -0.516
97 291.00 1200.00 204 638 2.000 10000.000 0.000 -0.516
98 294.00 1200.00 181 590 2.000 10000.000 0.000 -0.516
99 297.00 1200.00 197 574 2.000 10000.000 0.000 -0.516
100 300.00 1200.00 207 562 2.000 10000.000 0.000 -0.516
101 303.00 1200.00 184 472 2.000 10000.000 0.000 -0.516
