# BinNR microsec tot-time (s)  O-Beam AUX Ampl(V) f(Hz) phase(deg) chi(pos)
0 0.00 1200.04 122 438 2.000 10000.000 0.000 -0.308
1 3.00 1200.04 295 818 2.000 10000.000 0.000 -0.308
2 6.00 1200.04 336 995 2.000 10000.000 0.000 -0.308
3 9.00 1200.04 342 965 2.000 10000.000 0.000 -0.308
4 12.00 1200.04 361 998 2.000 10000.000 0.000 -0.308
5 15.00 1200.04 350 1010 2.000 10000.000 0.000 -0.308
6 18.00 1200.04 382 1045 2.000 10000.000 0.000 -0.308
7 21.00 1200.04 370 1102 2.000 10000.000 0.000 -0.308
8 24.00 1200.04 370 1093 2.000 10000.000 0.000 -0.308
9 27.00 1200.04 398 1092 2.000 10000.000 0.000 -0.308
10 30.00 1200.04 377 1096 2.000 10000.000 0.000 -0.308
11 33.00 1200.04 392 1077 2.000 10000.000 0.000 -0.308
12 36.00 1200.04 393 1103 2.000 10000.000 0.000 -0.308
13 39.00 1200.04 358 1052 2.000 10000.000 0.000 -0.308
14 42.00 1200.04 393 1034 2.000 10000.000 0.000 -0.308
15 45.00 1200.04 364 980 2.000 10000.000 0.000 -0.308
16 48.00 1200.04 344 1070 2.000 10000.000 0.000 -0.308
17 51.00 1200.04 392 973 2.000 10000.000 0.000 -0.308
18 54.00 1200.04 384 1058 2.000 10000.000 0.000 -0.308
19 57.00 1200.04 407 1036 2.000 10000.000 0.000 -0.308
20 60.00 1200.04 354 1063 2.000 10000.000 0.000 -0.308
21 63.00 1200.04 326 1133 2.000 10000.000 0.000 -0.308
22 66.00 1200.04 348 1101 2.000 10000.000 0.000 -0.308
23 69.00 1200.04 347 1098 2.000 10000.000 0.000 -0.308
24 72.00 1200.04 331 1115 2.000 10000.000 0.000 -0.308
25 75.00 1200.04 354 1142 2.000 10000.000 0.000 -0.308
26 78.00 1200.04 304 1094 2.000 10000.000 0.000 -0.308
27 81.00 1200.04 300 1049 2.000 10000.000 0.000 -0.308
28 84.00 1200.04 311 1026 2.000 10000.000 0.000 -0.308
29 87.00 1200.04 270 946 2.000 10000.000 0.000 -0.308
30 90.00 1200.04 295 884 2.000 10000.000 0.000 -0.308
31 93.00 1200.04 307 816 2.000 10000.000 0.000 -0.308
32 96.00 1200.04 285 812 2.000 10000.000 0.000 -0.308
33 99.00 1200.04 297 815 2.000 10000.000 0.000 -0.308
34 102.00 1200.04 285 819 2.000 10000.000 0.000 -0.308
35 105.00 1200.04 317 846 2.000 10000.000 0.000 -0.308
36 108.00 1200.04 316 867 2.000 10000.000 0.000 -0.308
37 111.00 1200.04 365 954 2.000 10000.000 0.000 -0.308
38 114.00 1200.04 334 961 2.000 10000.000 0.000 -0.308
39 117.00 1200.04 354 942 2.000 10000.000 0.000 -0.308
40 120.00 1200.04 375 1027 2.000 10000.000 0.000 -0.308
41 123.00 1200.04 394 996 2.000 10000.000 0.000 -0.308
42 126.00 1200.04 393 1073 2.000 10000.000 0.000 -0.308
43 129.00 1200.04 355 1056 2.000 10000.000 0.000 -0.308
44 132.00 1200.04 369 1067 2.000 10000.000 0.000 -0.308
45 135.00 1200.04 349 1074 2.000 10000.000 0.000 -0.308
46 138.00 1200.04 370 1067 2.000 10000.000 0.000 -0.308
47 141.00 1200.04 401 1064 2.000 10000.000 0.000 -0.308
48 144.00 1200.04 377 1015 2.000 10000.000 0.000 -0.308
49 147.00 1200.04 353 1029 2.000 10000.000 0.000 -0.308
50 150.00 1200.04 363 1002 2.000 10000.000 0.000 -0.308
51 153.00 1200.04 369 974 2.000 10000.000 0.000 -0.308
52 156.00 1200.04 376 1018 2.000 10000.000 0.000 -0.308
53 159.00 1200.04 339 1039 2.000 10000.000 0.000 -0.308
54 162.00 1200.04 355 1080 2.000 10000.000 0.000 -0.308
55 165.00 1200.04 350 1120 2.000 10000.000 0.000 -0.308
56 168.00 1200.04 364 1112 2.000 10000.000 0.000 -0.308
57 171.00 1200.04 354 1180 2.000 10000.000 0.000 -0.308
58 174.00 1200.04 354 1111 2.000 10000.000 0.000 -0.308
59 177.00 1200.04 328 1041 2.000 10000.000 0.000 -0.308
60 180.00 1200.04 326 1049 2.000 10000.000 0.000 -0.308
61 183.00 1200.04 289 1010 2.000 10000.000 0.000 -0.308
62 186.00 1200.04 308 988 2.000 10000.000 0.000 -0.308
63 189.00 1200.04 279 838 2.000 10000.000 0.000 -0.308
64 192.00 1200.04 283 934 2.000 10000.000 0.000 -0.308
65 195.00 1200.04 264 802 2.000 10000.000 0.000 -0.308
66 198.00 1200.04 259 827 2.000 10000.000 0.000 -0.308
67 201.00 1200.04 293 822 2.000 10000.000 0.000 -0.308
68 204.00 1200.04 300 836 2.000 10000.000 0.000 -0.308
69 207.00 1200.04 332 846 2.000 10000.000 0.000 -0.308
70 210.00 1200.04 303 885 2.000 10000.000 0.000 -0.308
71 213.00 1200.04 348 972 2.000 10000.000 0.000 -0.308
72 216.00 1200.04 336 955 2.000 10000.000 0.000 -0.308
73 219.00 1200.04 357 1031 2.000 10000.000 0.000 -0.308
74 222.00 1200.04 367 1100 2.000 10000.000 0.000 -0.308
75 225.00 1200.04 377 1077 2.000 10000.000 0.000 -0.308
76 228.00 1200.04 389 1107 2.000 10000.000 0.000 -0.308
77 231.00 1200.04 357 1078 2.000 10000.000 0.000 -0.308
78 234.00 1200.04 384 1054 2.000 10000.000 0.000 -0.308
79 237.00 1200.04 371 1025 2.000 10000.000 0.000 -0.308
80 240.00 1200.04 398 1000 2.000 10000.000 0.000 -0.308
81 243.00 1200.04 400 1020 2.000 10000.000 0.000 -0.308
82 246.00 1200.04 373 1020 2.000 10000.000 0.000 -0.308
83 249.00 1200.04 361 995 2.000 10000.000 0.000 -0.308
84 252.00 1200.04 363 1077 2.000 10000.000 0.000 -0.308
85 255.00 1200.04 341 1006 2.000 10000.000 0.000 -0.308
86 258.00 1200.04 350 1083 2.000 10000.000 0.000 -0.308
87 261.00 1200.04 397 1053 2.000 10000.000 0.000 -0.308
88 264.00 1200.04 353 1142 2.000 10000.000 0.000 -0.308
89 267.00 1200.04 363 1116 2.000 10000.000 0.000 -0.308
90 270.00 1200.04 399 1102 2.000 10000.000 0.000 -0.308
91 273.00 1200.04 361 1108 2.000 10000.000 0.000 -0.308
92 276.00 1200.04 359 1172 2.000 10000.000 0.000 -0.308
93 279.00 1200.04 302 991 2.000 10000.000 0.000 -0.308
94 282.00 1200.04 314 994 2.000 10000.000 0.000 -0.308
95 285.00 1200.04 320 1007 2.000 10000.000 0.000 -0.308
96 288.00 1200.04 292 923 2.000 10000.000 0.000 -0.308
97 291.00 1200.04 259 852 2.000 10000.000 0.000 -0.308
98 294.00 1200.04 301 892 2.000 10000.000 0.000 -0.308
99 297.00 1200.04 278 815 2.000 10000.000 0.000 -0.308
100 300.00 1200.04 280 812 2.000 10000.000 0.000 -0.308
101 303.00 1200.04 215 712 2.000 10000.000 0.000 -0.308
