# BinNR microsec tot-time (s)  O-Beam AUX Ampl(V) f(Hz) phase(deg) chi(pos)
0 0.00 1200.01 167 509 2.000 10000.000 0.000 0.286
1 3.00 1200.01 336 890 2.000 10000.000 0.000 0.286
2 6.00 1200.01 303 940 2.000 10000.000 0.000 0.286
3 9.00 1200.01 282 865 2.000 10000.000 0.000 0.286
4 12.00 1200.01 309 772 2.000 10000.000 0.000 0.286
5 15.00 1200.01 261 726 2.000 10000.000 0.000 0.286
6 18.00 1200.01 244 709 2.000 10000.000 0.000 0.286
7 21.00 1200.01 231 576 2.000 10000.000 0.000 0.286
8 24.00 1200.01 224 544 2.000 10000.000 0.000 0.286
9 27.00 1200.01 224 442 2.000 10000.000 0.000 0.286
10 30.00 1200.01 170 391 2.000 10000.000 0.000 0.286
11 33.00 1200.01 166 387 2.000 10000.000 0.000 0.286
12 36.00 1200.01 141 333 2.000 10000.000 0.000 0.286
13 39.00 1200.01 174 331 2.000 10000.000 0.000 0.286
14 42.00 1200.01 145 297 2.000 10000.000 0.000 0.286
15 45.00 1200.01 146 307 2.000 10000.000 0.000 0.286
16 48.00 1200.01 175 271 2.000 10000.000 0.000 0.286
17 51.00 1200.01 160 300 2.000 10000.000 0.000 0.286
18 54.00 1200.01 169 323 2.000 10000.000 0.000 0.286
19 57.00 1200.01 184 357 2.000 10000.000 0.000 0.286
20 60.00 1200.01 209 358 2.000 10000.000 0.000 0.286
21 63.00 1200.01 207 424 2.000 10000.000 0.000 0.286
22 66.00 1200.01 256 430 2.000 10000.000 0.000 0.286
23 69.00 1200.01 257 501 2.000 10000.000 0.000 0.286
24 72.00 1200.01 299 562 2.000 10000.000 0.000 0.286
25 75.00 1200.01 302 659 2.000 10000.000 0.000 0.286
26 78.00 1200.01 291 687 2.000 10000.000 0.000 0.286
27 81.00 1200.01 326 811 2.000 10000.000 0.000 0.286
28 84.00 1200.01 337 845 2.000 10000.000 0.000 0.286
29 87.00 1200.01 331 875 2.000 10000.000 0.000 0.286
30 90.00 1200.01 311 924 2.000 10000.000 0.000 0.286
31 93.00 1200.01 344 951 2.000 10000.000 0.000 0.286
32 96.00 1200.01 353 931 2.000 10000.000 0.000 0.286
33 99.00 1200.01 330 934 2.000 10000.000 0.000 0.286
34 102.00 1200.01 323 982 2.000 10000.000 0.000 0.286
35 105.00 1200.01 319 944 2.000 10000.000 0.000 0.286
36 108.00 1200.01 310 944 2.000 10000.000 0.000 0.286
37 111.00 1200.01 262 808 2.000 10000.000 0.000 0.286
38 114.00 1200.01 251 868 2.000 10000.000 0.000 0.286
39 117.00 1200.01 260 813 2.000 10000.000 0.000 0.286
40 120.00 1200.01 252 739 2.000 10000.000 0.000 0.286
41 123.00 1200.01 194 667 2.000 10000.000 0.000 0.286
42 126.00 1200.01 183 577 2.000 10000.000 0.000 0.286
43 129.00 1200.01 183 510 2.000 10000.000 0.000 0.286
44 132.00 1200.01 187 473 2.000 10000.000 0.000 0.286
45 135.00 1200.01 138 382 2.000 10000.000 0.000 0.286
46 138.00 1200.01 181 344 2.000 10000.000 0.000 0.286
47 141.00 1200.01 162 299 2.000 10000.000 0.000 0.286
48 144.00 1200.01 159 303 2.000 10000.000 0.000 0.286
49 147.00 1200.01 171 267 2.000 10000.000 0.000 0.286
50 150.00 1200.01 148 217 2.000 10000.000 0.000 0.286
51 153.00 1200.01 149 258 2.000 10000.000 0.000 0.286
52 156.00 1200.01 179 272 2.000 10000.000 0.000 0.286
53 159.00 1200.01 181 337 2.000 10000.000 0.000 0.286
54 162.00 1200.01 218 341 2.000 10000.000 0.000 0.286
55 165.00 1200.01 233 395 2.000 10000.000 0.000 0.286
56 168.00 1200.01 252 449 2.000 10000.000 0.000 0.286
57 171.00 1200.01 241 539 2.000 10000.000 0.000 0.286
58 174.00 1200.01 266 624 2.000 10000.000 0.000 0.286
59 177.00 1200.01 254 738 2.000 10000.000 0.000 0.286
60 180.00 1200.01 283 781 2.000 10000.000 0.000 0.286
61 183.00 1200.01 306 798 2.000 10000.000 0.000 0.286
62 186.00 1200.01 308 858 2.000 10000.000 0.000 0.286
63 189.00 1200.01 314 887 2.000 10000.000 0.000 0.286
64 192.00 1200.01 345 946 2.000 10000.000 0.000 0.286
65 195.00 1200.01 306 959 2.000 10000.000 0.000 0.286
66 198.00 1200.01 362 962 2.000 10000.000 0.000 0.286
67 201.00 1200.01 366 985 2.000 10000.000 0.000 0.286
68 204.00 1200.01 308 975 2.000 10000.000 0.000 0.286
69 207.00 1200.01 322 915 2.000 10000.000 0.000 0.286
70 210.00 1200.01 317 886 2.000 10000.000 0.000 0.286
71 213.00 1200.01 286 813 2.000 10000.000 0.000 0.286
72 216.00 1200.01 263 817 2.000 10000.000 0.000 0.286
73 219.00 1200.01 252 731 2.000 10000.000 0.000 0.286
74 222.00 1200.01 239 708 2.000 10000.000 0.000 0.286
75 225.00 1200.01 246 635 2.000 10000.000 0.000 0.286
76 228.00 1200.01 196 519 2.000 10000.000 0.000 0.286
77 231.00 1200.01 191 445 2.000 10000.000 0.000 0.286
78 234.00 1200.01 203 426 2.000 10000.000 0.000 0.286
79 237.00 1200.01 156 359 2.000 10000.000 0.000 0.286
80 240.00 1200.01 154 301 2.000 10000.000 0.000 0.286
81 243.00 1200.01 152 293 2.000 10000.000 0.000 0.286
82 246.00 1200.01 152 247 2.000 10000.000 0.000 0.286
83 249.00 1200.01 129 261 2.000 10000.000 0.000 0.286
84 252.00 1200.01 155 271 2.000 10000.000 0.000 0.286
85 255.00 1200.01 172 226 2.000 10000.000 0.000 0.286
86 258.00 1200.01 179 305 2.000 10000.000 0.000 0.286
87 261.00 1200.01 210 328 2.000 10000.000 0.000 0.286
88 264.00 1200.01 248 374 2.000 10000.000 0.000 0.286
89 267.00 1200.01 243 437 2.000 10000.000 0.000 0.286
90 270.00 1200.01 253 560 2.000 10000.000 0.000 0.286
91 273.00 1200.01 263 577 2.000 10000.000 0.000 0.286
92 276.00 1200.01 296 641 2.000 10000.000 0.000 0.286
93 279.00 1200.01 301 757 2.000 10000.000 0.000 0.286
94 282.00 1200.01 280 861 2.000 10000.000 0.000 0.286
95 285.00 1200.01 350 875 2.000 10000.000 0.000 0.286
96 288.00 1200.01 321 916 2.000 10000.000 0.000 0.286
97 291.00 1200.01 295 919 2.000 10000.000 0.000 0.286
98 294.00 1200.01 336 931 2.000 10000.000 0.000 0.286
99 297.00 1200.01 335 911 2.000 10000.000 0.000 0.286
100 300.00 1200.01 338 936 2.000 10000.000 0.000 0.286
101 303.00 1200.01 302 817 2.000 10000.000 0.000 0.286
