# BinNR microsec tot-time (s)  O-Beam AUX Ampl_1(V) f_1(Hz) phase_1(deg) Ampl_2(V) f_2(Hz) phase_2(deg) chi(pos)
0 0.00 1500.03 208 594 0.740 10000.000 0.000 0.610 15000.000 0.000 0.000
1 3.00 1500.03 377 1156 0.740 10000.000 0.000 0.610 15000.000 0.000 0.000
2 6.00 1500.03 464 1159 0.740 10000.000 0.000 0.610 15000.000 0.000 0.000
3 9.00 1500.03 413 1129 0.740 10000.000 0.000 0.610 15000.000 0.000 0.000
4 12.00 1500.03 414 1172 0.740 10000.000 0.000 0.610 15000.000 0.000 0.000
5 15.00 1500.03 400 1116 0.740 10000.000 0.000 0.610 15000.000 0.000 0.000
6 18.00 1500.03 409 1110 0.740 10000.000 0.000 0.610 15000.000 0.000 0.000
7 21.00 1500.03 398 1124 0.740 10000.000 0.000 0.610 15000.000 0.000 0.000
8 24.00 1500.03 412 1141 0.740 10000.000 0.000 0.610 15000.000 0.000 0.000
9 27.00 1500.03 375 1009 0.740 10000.000 0.000 0.610 15000.000 0.000 0.000
10 30.00 1500.03 395 1060 0.740 10000.000 0.000 0.610 15000.000 0.000 0.000
11 33.00 1500.03 379 995 0.740 10000.000 0.000 0.610 15000.000 0.000 0.000
12 36.00 1500.03 380 1075 0.740 10000.000 0.000 0.610 15000.000 0.000 0.000
13 39.00 1500.03 380 1044 0.740 10000.000 0.000 0.610 15000.000 0.000 0.000
14 42.00 1500.03 386 1055 0.740 10000.000 0.000 0.610 15000.000 0.000 0.000
15 45.00 1500.03 349 1036 0.740 10000.000 0.000 0.610 15000.000 0.000 0.000
16 48.00 1500.03 379 1213 0.740 10000.000 0.000 0.610 15000.000 0.000 0.000
17 51.00 1500.03 372 1122 0.740 10000.000 0.000 0.610 15000.000 0.000 0.000
18 54.00 1500.03 380 1222 0.740 10000.000 0.000 0.610 15000.000 0.000 0.000
19 57.00 1500.03 381 1130 0.740 10000.000 0.000 0.610 15000.000 0.000 0.000
20 60.00 1500.03 393 1165 0.740 10000.000 0.000 0.610 15000.000 0.000 0.000
21 63.00 1500.03 418 1103 0.740 10000.000 0.000 0.610 15000.000 0.000 0.000
22 66.00 1500.03 400 1171 0.740 10000.000 0.000 0.610 15000.000 0.000 0.000
23 69.00 1500.03 413 1080 0.740 10000.000 0.000 0.610 15000.000 0.000 0.000
24 72.00 1500.03 415 1073 0.740 10000.000 0.000 0.610 15000.000 0.000 0.000
25 75.00 1500.03 425 905 0.740 10000.000 0.000 0.610 15000.000 0.000 0.000
26 78.00 1500.03 405 864 0.740 10000.000 0.000 0.610 15000.000 0.000 0.000
27 81.00 1500.03 388 876 0.740 10000.000 0.000 0.610 15000.000 0.000 0.000
28 84.00 1500.03 451 810 0.740 10000.000 0.000 0.610 15000.000 0.000 0.000
29 87.00 1500.03 425 803 0.740 10000.000 0.000 0.610 15000.000 0.000 0.000
30 90.00 1500.03 430 851 0.740 10000.000 0.000 0.610 15000.000 0.000 0.000
31 93.00 1500.03 425 856 0.740 10000.000 0.000 0.610 15000.000 0.000 0.000
32 96.00 1500.03 415 908 0.740 10000.000 0.000 0.610 15000.000 0.000 0.000
33 99.00 1500.03 413 863 0.740 10000.000 0.000 0.610 15000.000 0.000 0.000
34 102.00 1500.03 411 932 0.740 10000.000 0.000 0.610 15000.000 0.000 0.000
35 105.00 1500.03 357 941 0.740 10000.000 0.000 0.610 15000.000 0.000 0.000
36 108.00 1500.03 398 995 0.740 10000.000 0.000 0.610 15000.000 0.000 0.000
37 111.00 1500.03 363 1048 0.740 10000.000 0.000 0.610 15000.000 0.000 0.000
38 114.00 1500.03 402 1029 0.740 10000.000 0.000 0.610 15000.000 0.000 0.000
39 117.00 1500.03 326 1122 0.740 10000.000 0.000 0.610 15000.000 0.000 0.000
40 120.00 1500.03 389 1097 0.740 10000.000 0.000 0.610 15000.000 0.000 0.000
41 123.00 1500.03 381 1025 0.740 10000.000 0.000 0.610 15000.000 0.000 0.000
42 126.00 1500.03 405 1147 0.740 10000.000 0.000 0.610 15000.000 0.000 0.000
43 129.00 1500.03 384 1119 0.740 10000.000 0.000 0.610 15000.000 0.000 0.000
44 132.00 1500.03 406 1152 0.740 10000.000 0.000 0.610 15000.000 0.000 0.000
45 135.00 1500.03 412 1013 0.740 10000.000 0.000 0.610 15000.000 0.000 0.000
46 138.00 1500.03 404 985 0.740 10000.000 0.000 0.610 15000.000 0.000 0.000
47 141.00 1500.03 390 1063 0.740 10000.000 0.000 0.610 15000.000 0.000 0.000
48 144.00 1500.03 395 1117 0.740 10000.000 0.000 0.610 15000.000 0.000 0.000
49 147.00 1500.03 400 1000 0.740 10000.000 0.000 0.610 15000.000 0.000 0.000
50 150.00 1500.03 405 1141 0.740 10000.000 0.000 0.610 15000.000 0.000 0.000
51 153.00 1500.03 389 1043 0.740 10000.000 0.000 0.610 15000.000 0.000 0.000
52 156.00 1500.03 424 1113 0.740 10000.000 0.000 0.610 15000.000 0.000 0.000
53 159.00 1500.03 461 1015 0.740 10000.000 0.000 0.610 15000.000 0.000 0.000
54 162.00 1500.03 398 1088 0.740 10000.000 0.000 0.610 15000.000 0.000 0.000
55 165.00 1500.03 415 1129 0.740 10000.000 0.000 0.610 15000.000 0.000 0.000
56 168.00 1500.03 400 1111 0.740 10000.000 0.000 0.610 15000.000 0.000 0.000
57 171.00 1500.03 437 1133 0.740 10000.000 0.000 0.610 15000.000 0.000 0.000
58 174.00 1500.03 392 1167 0.740 10000.000 0.000 0.610 15000.000 0.000 0.000
59 177.00 1500.03 423 1108 0.740 10000.000 0.000 0.610 15000.000 0.000 0.000
60 180.00 1500.03 418 1065 0.740 10000.000 0.000 0.610 15000.000 0.000 0.000
61 183.00 1500.03 410 1027 0.740 10000.000 0.000 0.610 15000.000 0.000 0.000
62 186.00 1500.03 429 1057 0.740 10000.000 0.000 0.610 15000.000 0.000 0.000
63 189.00 1500.03 402 979 0.740 10000.000 0.000 0.610 15000.000 0.000 0.000
64 192.00 1500.03 427 982 0.740 10000.000 0.000 0.610 15000.000 0.000 0.000
65 195.00 1500.03 402 920 0.740 10000.000 0.000 0.610 15000.000 0.000 0.000
66 198.00 1500.03 455 879 0.740 10000.000 0.000 0.610 15000.000 0.000 0.000
67 201.00 1500.03 463 811 0.740 10000.000 0.000 0.610 15000.000 0.000 0.000
68 204.00 1500.03 437 802 0.740 10000.000 0.000 0.610 15000.000 0.000 0.000
69 207.00 1500.03 413 810 0.740 10000.000 0.000 0.610 15000.000 0.000 0.000
70 210.00 1500.03 423 860 0.740 10000.000 0.000 0.610 15000.000 0.000 0.000
71 213.00 1500.03 433 819 0.740 10000.000 0.000 0.610 15000.000 0.000 0.000
72 216.00 1500.03 389 886 0.740 10000.000 0.000 0.610 15000.000 0.000 0.000
73 219.00 1500.03 414 889 0.740 10000.000 0.000 0.610 15000.000 0.000 0.000
74 222.00 1500.03 427 971 0.740 10000.000 0.000 0.610 15000.000 0.000 0.000
75 225.00 1500.03 374 964 0.740 10000.000 0.000 0.610 15000.000 0.000 0.000
76 228.00 1500.03 411 1028 0.740 10000.000 0.000 0.610 15000.000 0.000 0.000
77 231.00 1500.03 387 1109 0.740 10000.000 0.000 0.610 15000.000 0.000 0.000
78 234.00 1500.03 392 1200 0.740 10000.000 0.000 0.610 15000.000 0.000 0.000
79 237.00 1500.03 347 1105 0.740 10000.000 0.000 0.610 15000.000 0.000 0.000
80 240.00 1500.03 389 1153 0.740 10000.000 0.000 0.610 15000.000 0.000 0.000
81 243.00 1500.03 373 1154 0.740 10000.000 0.000 0.610 15000.000 0.000 0.000
82 246.00 1500.03 365 1241 0.740 10000.000 0.000 0.610 15000.000 0.000 0.000
83 249.00 1500.03 417 1246 0.740 10000.000 0.000 0.610 15000.000 0.000 0.000
84 252.00 1500.03 386 1167 0.740 10000.000 0.000 0.610 15000.000 0.000 0.000
85 255.00 1500.03 377 1200 0.740 10000.000 0.000 0.610 15000.000 0.000 0.000
86 258.00 1500.03 371 1216 0.740 10000.000 0.000 0.610 15000.000 0.000 0.000
87 261.00 1500.03 372 1202 0.740 10000.000 0.000 0.610 15000.000 0.000 0.000
88 264.00 1500.03 395 1158 0.740 10000.000 0.000 0.610 15000.000 0.000 0.000
89 267.00 1500.03 421 1086 0.740 10000.000 0.000 0.610 15000.000 0.000 0.000
90 270.00 1500.03 403 962 0.740 10000.000 0.000 0.610 15000.000 0.000 0.000
91 273.00 1500.03 421 944 0.740 10000.000 0.000 0.610 15000.000 0.000 0.000
92 276.00 1500.03 455 906 0.740 10000.000 0.000 0.610 15000.000 0.000 0.000
93 279.00 1500.03 418 823 0.740 10000.000 0.000 0.610 15000.000 0.000 0.000
94 282.00 1500.03 451 809 0.740 10000.000 0.000 0.610 15000.000 0.000 0.000
95 285.00 1500.03 387 782 0.740 10000.000 0.000 0.610 15000.000 0.000 0.000
96 288.00 1500.03 452 765 0.740 10000.000 0.000 0.610 15000.000 0.000 0.000
97 291.00 1500.03 364 814 0.740 10000.000 0.000 0.610 15000.000 0.000 0.000
98 294.00 1500.03 399 786 0.740 10000.000 0.000 0.610 15000.000 0.000 0.000
99 297.00 1500.03 434 903 0.740 10000.000 0.000 0.610 15000.000 0.000 0.000
100 300.00 1500.03 387 891 0.740 10000.000 0.000 0.610 15000.000 0.000 0.000
101 303.00 1500.03 427 905 0.740 10000.000 0.000 0.610 15000.000 0.000 0.000
102 306.00 1500.03 432 1015 0.740 10000.000 0.000 0.610 15000.000 0.000 0.000
103 309.00 1500.03 432 1076 0.740 10000.000 0.000 0.610 15000.000 0.000 0.000
104 312.00 1500.03 445 1139 0.740 10000.000 0.000 0.610 15000.000 0.000 0.000
105 315.00 1500.03 436 1072 0.740 10000.000 0.000 0.610 15000.000 0.000 0.000
106 318.00 1500.03 432 1186 0.740 10000.000 0.000 0.610 15000.000 0.000 0.000
107 321.00 1500.03 394 1076 0.740 10000.000 0.000 0.610 15000.000 0.000 0.000
108 324.00 1500.03 448 1163 0.740 10000.000 0.000 0.610 15000.000 0.000 0.000
109 327.00 1500.03 440 1080 0.740 10000.000 0.000 0.610 15000.000 0.000 0.000
110 330.00 1500.03 433 1060 0.740 10000.000 0.000 0.610 15000.000 0.000 0.000
111 333.00 1500.03 395 1088 0.740 10000.000 0.000 0.610 15000.000 0.000 0.000
112 336.00 1500.03 428 1064 0.740 10000.000 0.000 0.610 15000.000 0.000 0.000
113 339.00 1500.03 434 1010 0.740 10000.000 0.000 0.610 15000.000 0.000 0.000
114 342.00 1500.03 402 1100 0.740 10000.000 0.000 0.610 15000.000 0.000 0.000
115 345.00 1500.03 371 1031 0.740 10000.000 0.000 0.610 15000.000 0.000 0.000
116 348.00 1500.03 425 1091 0.740 10000.000 0.000 0.610 15000.000 0.000 0.000
117 351.00 1500.03 400 1001 0.740 10000.000 0.000 0.610 15000.000 0.000 0.000
118 354.00 1500.03 377 1053 0.740 10000.000 0.000 0.610 15000.000 0.000 0.000
119 357.00 1500.03 374 1054 0.740 10000.000 0.000 0.610 15000.000 0.000 0.000
120 360.00 1500.03 380 1084 0.740 10000.000 0.000 0.610 15000.000 0.000 0.000
121 363.00 1500.03 367 1091 0.740 10000.000 0.000 0.610 15000.000 0.000 0.000
122 366.00 1500.03 389 1059 0.740 10000.000 0.000 0.610 15000.000 0.000 0.000
123 369.00 1500.03 385 1032 0.740 10000.000 0.000 0.610 15000.000 0.000 0.000
124 372.00 1500.03 417 1091 0.740 10000.000 0.000 0.610 15000.000 0.000 0.000
125 375.00 1500.03 392 1162 0.740 10000.000 0.000 0.610 15000.000 0.000 0.000
126 378.00 1500.03 361 1139 0.740 10000.000 0.000 0.610 15000.000 0.000 0.000
127 381.00 1500.03 411 1081 0.740 10000.000 0.000 0.610 15000.000 0.000 0.000
128 384.00 1500.03 413 1091 0.740 10000.000 0.000 0.610 15000.000 0.000 0.000
129 387.00 1500.03 417 993 0.740 10000.000 0.000 0.610 15000.000 0.000 0.000
130 390.00 1500.03 435 990 0.740 10000.000 0.000 0.610 15000.000 0.000 0.000
131 393.00 1500.03 386 965 0.740 10000.000 0.000 0.610 15000.000 0.000 0.000
132 396.00 1500.03 450 969 0.740 10000.000 0.000 0.610 15000.000 0.000 0.000
133 399.00 1500.03 391 820 0.740 10000.000 0.000 0.610 15000.000 0.000 0.000
134 402.00 1500.03 441 848 0.740 10000.000 0.000 0.610 15000.000 0.000 0.000
135 405.00 1500.03 421 782 0.740 10000.000 0.000 0.610 15000.000 0.000 0.000
136 408.00 1500.03 419 788 0.740 10000.000 0.000 0.610 15000.000 0.000 0.000
137 411.00 1500.03 400 805 0.740 10000.000 0.000 0.610 15000.000 0.000 0.000
138 414.00 1500.03 423 845 0.740 10000.000 0.000 0.610 15000.000 0.000 0.000
139 417.00 1500.03 426 855 0.740 10000.000 0.000 0.610 15000.000 0.000 0.000
140 420.00 1500.03 442 887 0.740 10000.000 0.000 0.610 15000.000 0.000 0.000
141 423.00 1500.03 415 920 0.740 10000.000 0.000 0.610 15000.000 0.000 0.000
142 426.00 1500.03 427 993 0.740 10000.000 0.000 0.610 15000.000 0.000 0.000
143 429.00 1500.03 411 1029 0.740 10000.000 0.000 0.610 15000.000 0.000 0.000
144 432.00 1500.03 423 1131 0.740 10000.000 0.000 0.610 15000.000 0.000 0.000
