# BinNR microsec tot-time (s)  O-Beam AUX Ampl_1(V) f_1(Hz) phase_1(deg) Ampl_2(V) f_2(Hz) phase_2(deg) chi(pos)
0 0.00 1500.00 101 307 0.740 10000.000 0.000 0.610 15000.000 0.000 1.329
1 3.00 1500.00 197 593 0.740 10000.000 0.000 0.610 15000.000 0.000 1.329
2 6.00 1500.00 230 554 0.740 10000.000 0.000 0.610 15000.000 0.000 1.329
3 9.00 1500.00 193 552 0.740 10000.000 0.000 0.610 15000.000 0.000 1.329
4 12.00 1500.00 227 588 0.740 10000.000 0.000 0.610 15000.000 0.000 1.329
5 15.00 1500.00 235 660 0.740 10000.000 0.000 0.610 15000.000 0.000 1.329
6 18.00 1500.00 214 616 0.740 10000.000 0.000 0.610 15000.000 0.000 1.329
7 21.00 1500.00 231 743 0.740 10000.000 0.000 0.610 15000.000 0.000 1.329
8 24.00 1500.00 245 746 0.740 10000.000 0.000 0.610 15000.000 0.000 1.329
9 27.00 1500.00 237 739 0.740 10000.000 0.000 0.610 15000.000 0.000 1.329
10 30.00 1500.00 257 776 0.740 10000.000 0.000 0.610 15000.000 0.000 1.329
11 33.00 1500.00 259 783 0.740 10000.000 0.000 0.610 15000.000 0.000 1.329
12 36.00 1500.00 262 883 0.740 10000.000 0.000 0.610 15000.000 0.000 1.329
13 39.00 1500.00 294 767 0.740 10000.000 0.000 0.610 15000.000 0.000 1.329
14 42.00 1500.00 308 765 0.740 10000.000 0.000 0.610 15000.000 0.000 1.329
15 45.00 1500.00 307 665 0.740 10000.000 0.000 0.610 15000.000 0.000 1.329
16 48.00 1500.00 297 652 0.740 10000.000 0.000 0.610 15000.000 0.000 1.329
17 51.00 1500.00 310 601 0.740 10000.000 0.000 0.610 15000.000 0.000 1.329
18 54.00 1500.00 271 593 0.740 10000.000 0.000 0.610 15000.000 0.000 1.329
19 57.00 1500.00 260 623 0.740 10000.000 0.000 0.610 15000.000 0.000 1.329
20 60.00 1500.00 248 671 0.740 10000.000 0.000 0.610 15000.000 0.000 1.329
21 63.00 1500.00 235 655 0.740 10000.000 0.000 0.610 15000.000 0.000 1.329
22 66.00 1500.00 263 761 0.740 10000.000 0.000 0.610 15000.000 0.000 1.329
23 69.00 1500.00 208 769 0.740 10000.000 0.000 0.610 15000.000 0.000 1.329
24 72.00 1500.00 197 823 0.740 10000.000 0.000 0.610 15000.000 0.000 1.329
25 75.00 1500.00 182 916 0.740 10000.000 0.000 0.610 15000.000 0.000 1.329
26 78.00 1500.00 166 965 0.740 10000.000 0.000 0.610 15000.000 0.000 1.329
27 81.00 1500.00 170 1024 0.740 10000.000 0.000 0.610 15000.000 0.000 1.329
28 84.00 1500.00 160 991 0.740 10000.000 0.000 0.610 15000.000 0.000 1.329
29 87.00 1500.00 153 1037 0.740 10000.000 0.000 0.610 15000.000 0.000 1.329
30 90.00 1500.00 189 1062 0.740 10000.000 0.000 0.610 15000.000 0.000 1.329
31 93.00 1500.00 190 992 0.740 10000.000 0.000 0.610 15000.000 0.000 1.329
32 96.00 1500.00 210 1012 0.740 10000.000 0.000 0.610 15000.000 0.000 1.329
33 99.00 1500.00 186 915 0.740 10000.000 0.000 0.610 15000.000 0.000 1.329
34 102.00 1500.00 205 895 0.740 10000.000 0.000 0.610 15000.000 0.000 1.329
35 105.00 1500.00 234 874 0.740 10000.000 0.000 0.610 15000.000 0.000 1.329
36 108.00 1500.00 256 831 0.740 10000.000 0.000 0.610 15000.000 0.000 1.329
37 111.00 1500.00 270 751 0.740 10000.000 0.000 0.610 15000.000 0.000 1.329
38 114.00 1500.00 278 758 0.740 10000.000 0.000 0.610 15000.000 0.000 1.329
39 117.00 1500.00 281 739 0.740 10000.000 0.000 0.610 15000.000 0.000 1.329
40 120.00 1500.00 263 708 0.740 10000.000 0.000 0.610 15000.000 0.000 1.329
41 123.00 1500.00 286 682 0.740 10000.000 0.000 0.610 15000.000 0.000 1.329
42 126.00 1500.00 320 650 0.740 10000.000 0.000 0.610 15000.000 0.000 1.329
43 129.00 1500.00 267 681 0.740 10000.000 0.000 0.610 15000.000 0.000 1.329
44 132.00 1500.00 252 678 0.740 10000.000 0.000 0.610 15000.000 0.000 1.329
45 135.00 1500.00 313 667 0.740 10000.000 0.000 0.610 15000.000 0.000 1.329
46 138.00 1500.00 284 711 0.740 10000.000 0.000 0.610 15000.000 0.000 1.329
47 141.00 1500.00 251 752 0.740 10000.000 0.000 0.610 15000.000 0.000 1.329
48 144.00 1500.00 255 733 0.740 10000.000 0.000 0.610 15000.000 0.000 1.329
49 147.00 1500.00 211 749 0.740 10000.000 0.000 0.610 15000.000 0.000 1.329
50 150.00 1500.00 231 782 0.740 10000.000 0.000 0.610 15000.000 0.000 1.329
51 153.00 1500.00 224 744 0.740 10000.000 0.000 0.610 15000.000 0.000 1.329
52 156.00 1500.00 236 735 0.740 10000.000 0.000 0.610 15000.000 0.000 1.329
53 159.00 1500.00 210 728 0.740 10000.000 0.000 0.610 15000.000 0.000 1.329
54 162.00 1500.00 205 777 0.740 10000.000 0.000 0.610 15000.000 0.000 1.329
55 165.00 1500.00 210 693 0.740 10000.000 0.000 0.610 15000.000 0.000 1.329
56 168.00 1500.00 190 707 0.740 10000.000 0.000 0.610 15000.000 0.000 1.329
57 171.00 1500.00 190 684 0.740 10000.000 0.000 0.610 15000.000 0.000 1.329
58 174.00 1500.00 228 690 0.740 10000.000 0.000 0.610 15000.000 0.000 1.329
59 177.00 1500.00 218 708 0.740 10000.000 0.000 0.610 15000.000 0.000 1.329
60 180.00 1500.00 225 696 0.740 10000.000 0.000 0.610 15000.000 0.000 1.329
61 183.00 1500.00 213 758 0.740 10000.000 0.000 0.610 15000.000 0.000 1.329
62 186.00 1500.00 234 811 0.740 10000.000 0.000 0.610 15000.000 0.000 1.329
63 189.00 1500.00 195 788 0.740 10000.000 0.000 0.610 15000.000 0.000 1.329
64 192.00 1500.00 224 935 0.740 10000.000 0.000 0.610 15000.000 0.000 1.329
65 195.00 1500.00 240 909 0.740 10000.000 0.000 0.610 15000.000 0.000 1.329
66 198.00 1500.00 210 960 0.740 10000.000 0.000 0.610 15000.000 0.000 1.329
67 201.00 1500.00 239 979 0.740 10000.000 0.000 0.610 15000.000 0.000 1.329
68 204.00 1500.00 206 955 0.740 10000.000 0.000 0.610 15000.000 0.000 1.329
69 207.00 1500.00 191 1021 0.740 10000.000 0.000 0.610 15000.000 0.000 1.329
70 210.00 1500.00 198 1086 0.740 10000.000 0.000 0.610 15000.000 0.000 1.329
71 213.00 1500.00 213 1063 0.740 10000.000 0.000 0.610 15000.000 0.000 1.329
72 216.00 1500.00 215 1016 0.740 10000.000 0.000 0.610 15000.000 0.000 1.329
73 219.00 1500.00 266 953 0.740 10000.000 0.000 0.610 15000.000 0.000 1.329
74 222.00 1500.00 243 903 0.740 10000.000 0.000 0.610 15000.000 0.000 1.329
75 225.00 1500.00 257 857 0.740 10000.000 0.000 0.610 15000.000 0.000 1.329
76 228.00 1500.00 274 820 0.740 10000.000 0.000 0.610 15000.000 0.000 1.329
77 231.00 1500.00 297 667 0.740 10000.000 0.000 0.610 15000.000 0.000 1.329
78 234.00 1500.00 265 632 0.740 10000.000 0.000 0.610 15000.000 0.000 1.329
79 237.00 1500.00 281 554 0.740 10000.000 0.000 0.610 15000.000 0.000 1.329
80 240.00 1500.00 279 524 0.740 10000.000 0.000 0.610 15000.000 0.000 1.329
81 243.00 1500.00 262 477 0.740 10000.000 0.000 0.610 15000.000 0.000 1.329
82 246.00 1500.00 286 467 0.740 10000.000 0.000 0.610 15000.000 0.000 1.329
83 249.00 1500.00 259 456 0.740 10000.000 0.000 0.610 15000.000 0.000 1.329
84 252.00 1500.00 260 490 0.740 10000.000 0.000 0.610 15000.000 0.000 1.329
85 255.00 1500.00 248 501 0.740 10000.000 0.000 0.610 15000.000 0.000 1.329
86 258.00 1500.00 248 536 0.740 10000.000 0.000 0.610 15000.000 0.000 1.329
87 261.00 1500.00 242 570 0.740 10000.000 0.000 0.610 15000.000 0.000 1.329
88 264.00 1500.00 236 701 0.740 10000.000 0.000 0.610 15000.000 0.000 1.329
89 267.00 1500.00 235 730 0.740 10000.000 0.000 0.610 15000.000 0.000 1.329
90 270.00 1500.00 215 864 0.740 10000.000 0.000 0.610 15000.000 0.000 1.329
91 273.00 1500.00 165 876 0.740 10000.000 0.000 0.610 15000.000 0.000 1.329
92 276.00 1500.00 164 946 0.740 10000.000 0.000 0.610 15000.000 0.000 1.329
93 279.00 1500.00 172 1005 0.740 10000.000 0.000 0.610 15000.000 0.000 1.329
94 282.00 1500.00 209 1073 0.740 10000.000 0.000 0.610 15000.000 0.000 1.329
95 285.00 1500.00 210 1019 0.740 10000.000 0.000 0.610 15000.000 0.000 1.329
96 288.00 1500.00 207 1048 0.740 10000.000 0.000 0.610 15000.000 0.000 1.329
97 291.00 1500.00 221 1011 0.740 10000.000 0.000 0.610 15000.000 0.000 1.329
98 294.00 1500.00 217 1075 0.740 10000.000 0.000 0.610 15000.000 0.000 1.329
99 297.00 1500.00 228 974 0.740 10000.000 0.000 0.610 15000.000 0.000 1.329
100 300.00 1500.00 213 979 0.740 10000.000 0.000 0.610 15000.000 0.000 1.329
101 303.00 1500.00 198 899 0.740 10000.000 0.000 0.610 15000.000 0.000 1.329
102 306.00 1500.00 240 816 0.740 10000.000 0.000 0.610 15000.000 0.000 1.329
103 309.00 1500.00 202 785 0.740 10000.000 0.000 0.610 15000.000 0.000 1.329
104 312.00 1500.00 211 695 0.740 10000.000 0.000 0.610 15000.000 0.000 1.329
105 315.00 1500.00 228 747 0.740 10000.000 0.000 0.610 15000.000 0.000 1.329
106 318.00 1500.00 213 711 0.740 10000.000 0.000 0.610 15000.000 0.000 1.329
107 321.00 1500.00 182 679 0.740 10000.000 0.000 0.610 15000.000 0.000 1.329
108 324.00 1500.00 203 673 0.740 10000.000 0.000 0.610 15000.000 0.000 1.329
109 327.00 1500.00 226 643 0.740 10000.000 0.000 0.610 15000.000 0.000 1.329
110 330.00 1500.00 206 650 0.740 10000.000 0.000 0.610 15000.000 0.000 1.329
111 333.00 1500.00 215 687 0.740 10000.000 0.000 0.610 15000.000 0.000 1.329
112 336.00 1500.00 230 720 0.740 10000.000 0.000 0.610 15000.000 0.000 1.329
113 339.00 1500.00 230 725 0.740 10000.000 0.000 0.610 15000.000 0.000 1.329
114 342.00 1500.00 249 698 0.740 10000.000 0.000 0.610 15000.000 0.000 1.329
115 345.00 1500.00 252 730 0.740 10000.000 0.000 0.610 15000.000 0.000 1.329
116 348.00 1500.00 286 770 0.740 10000.000 0.000 0.610 15000.000 0.000 1.329
117 351.00 1500.00 273 792 0.740 10000.000 0.000 0.610 15000.000 0.000 1.329
118 354.00 1500.00 269 821 0.740 10000.000 0.000 0.610 15000.000 0.000 1.329
119 357.00 1500.00 283 712 0.740 10000.000 0.000 0.610 15000.000 0.000 1.329
120 360.00 1500.00 309 748 0.740 10000.000 0.000 0.610 15000.000 0.000 1.329
121 363.00 1500.00 289 691 0.740 10000.000 0.000 0.610 15000.000 0.000 1.329
122 366.00 1500.00 317 685 0.740 10000.000 0.000 0.610 15000.000 0.000 1.329
123 369.00 1500.00 251 704 0.740 10000.000 0.000 0.610 15000.000 0.000 1.329
124 372.00 1500.00 269 726 0.740 10000.000 0.000 0.610 15000.000 0.000 1.329
125 375.00 1500.00 266 705 0.740 10000.000 0.000 0.610 15000.000 0.000 1.329
126 378.00 1500.00 268 688 0.740 10000.000 0.000 0.610 15000.000 0.000 1.329
127 381.00 1500.00 241 728 0.740 10000.000 0.000 0.610 15000.000 0.000 1.329
128 384.00 1500.00 227 758 0.740 10000.000 0.000 0.610 15000.000 0.000 1.329
129 387.00 1500.00 226 759 0.740 10000.000 0.000 0.610 15000.000 0.000 1.329
130 390.00 1500.00 219 900 0.740 10000.000 0.000 0.610 15000.000 0.000 1.329
131 393.00 1500.00 202 820 0.740 10000.000 0.000 0.610 15000.000 0.000 1.329
132 396.00 1500.00 197 936 0.740 10000.000 0.000 0.610 15000.000 0.000 1.329
133 399.00 1500.00 216 891 0.740 10000.000 0.000 0.610 15000.000 0.000 1.329
134 402.00 1500.00 196 970 0.740 10000.000 0.000 0.610 15000.000 0.000 1.329
135 405.00 1500.00 192 1000 0.740 10000.000 0.000 0.610 15000.000 0.000 1.329
136 408.00 1500.00 218 1027 0.740 10000.000 0.000 0.610 15000.000 0.000 1.329
137 411.00 1500.00 208 981 0.740 10000.000 0.000 0.610 15000.000 0.000 1.329
138 414.00 1500.00 221 1075 0.740 10000.000 0.000 0.610 15000.000 0.000 1.329
139 417.00 1500.00 201 966 0.740 10000.000 0.000 0.610 15000.000 0.000 1.329
140 420.00 1500.00 221 993 0.740 10000.000 0.000 0.610 15000.000 0.000 1.329
141 423.00 1500.00 218 934 0.740 10000.000 0.000 0.610 15000.000 0.000 1.329
142 426.00 1500.00 210 882 0.740 10000.000 0.000 0.610 15000.000 0.000 1.329
143 429.00 1500.00 214 760 0.740 10000.000 0.000 0.610 15000.000 0.000 1.329
144 432.00 1500.00 219 647 0.740 10000.000 0.000 0.610 15000.000 0.000 1.329
