# BinNR microsec tot-time (s)  O-Beam H-beam AUX Ampl(V) f(Hz) phase(deg) chi(pos)
0 0.00 900.00 429 514 4 0.000 3.343 2000.000 0.802
1 25.00 900.00 476 642 3 0.000 3.343 2000.000 0.802
2 50.00 900.00 442 737 1 0.000 3.343 2000.000 0.802
3 75.00 900.00 482 794 3 0.000 3.343 2000.000 0.802
4 100.00 900.00 418 791 0 0.000 3.343 2000.000 0.802
5 125.00 900.00 334 616 4 0.000 3.343 2000.000 0.802
6 150.00 900.00 206 607 1 0.000 3.343 2000.000 0.802
7 175.00 900.00 111 532 2 0.000 3.343 2000.000 0.802
8 200.00 900.00 91 505 1 0.000 3.343 2000.000 0.802
9 225.00 900.00 164 612 3 0.000 3.343 2000.000 0.802
10 250.00 900.00 236 663 3 0.000 3.343 2000.000 0.802
11 275.00 900.00 326 753 1 0.000 3.343 2000.000 0.802
12 300.00 900.00 353 759 0 0.000 3.343 2000.000 0.802
13 325.00 900.00 323 725 3 0.000 3.343 2000.000 0.802
14 350.00 900.00 298 619 4 0.000 3.343 2000.000 0.802
15 375.00 900.00 192 459 2 0.000 3.343 2000.000 0.802
16 400.00 900.00 101 410 3 0.000 3.343 2000.000 0.802
17 425.00 900.00 121 409 3 0.000 3.343 2000.000 0.802
18 450.00 900.00 213 392 2 0.000 3.343 2000.000 0.802
19 475.00 900.00 349 402 2 0.000 3.343 2000.000 0.802
20 500.00 900.00 412 471 2 0.000 3.343 2000.000 0.802
21 525.00 900.00 451 587 2 0.000 3.343 2000.000 0.802
22 550.00 900.00 431 708 3 0.000 3.343 2000.000 0.802
23 575.00 900.00 464 754 3 0.000 3.343 2000.000 0.802
24 600.00 900.00 421 767 2 0.000 3.343 2000.000 0.802
25 625.00 900.00 352 644 3 0.000 3.343 2000.000 0.802
26 650.00 900.00 241 589 2 0.000 3.343 2000.000 0.802
27 675.00 900.00 115 509 2 0.000 3.343 2000.000 0.802
28 700.00 900.00 95 573 0 0.000 3.343 2000.000 0.802
29 725.00 900.00 149 573 1 0.000 3.343 2000.000 0.802
30 750.00 900.00 275 629 1 0.000 3.343 2000.000 0.802
31 775.00 900.00 329 711 2 0.000 3.343 2000.000 0.802
32 800.00 900.00 379 834 6 0.000 3.343 2000.000 0.802
33 825.00 900.00 344 731 1 0.000 3.343 2000.000 0.802
34 850.00 900.00 276 629 2 0.000 3.343 2000.000 0.802
35 875.00 900.00 193 480 0 0.000 3.343 2000.000 0.802
36 900.00 900.00 109 391 1 0.000 3.343 2000.000 0.802
37 925.00 900.00 95 415 2 0.000 3.343 2000.000 0.802
38 950.00 900.00 171 380 1 0.000 3.343 2000.000 0.802
39 975.00 900.00 360 395 2 0.000 3.343 2000.000 0.802
