# BinNR microsec tot-time (s)  O-Beam AUX Ampl(V) f(Hz) phase(deg) chi(pos)
0 0.00 1200.01 229 693 2.000 10000.000 0.000 -0.505
1 3.00 1200.01 430 1258 2.000 10000.000 0.000 -0.505
2 6.00 1200.01 388 1327 2.000 10000.000 0.000 -0.505
3 9.00 1200.01 402 1296 2.000 10000.000 0.000 -0.505
4 12.00 1200.01 431 1276 2.000 10000.000 0.000 -0.505
5 15.00 1200.01 421 1215 2.000 10000.000 0.000 -0.505
6 18.00 1200.01 404 1132 2.000 10000.000 0.000 -0.505
7 21.00 1200.01 352 1123 2.000 10000.000 0.000 -0.505
8 24.00 1200.01 394 1006 2.000 10000.000 0.000 -0.505
9 27.00 1200.01 352 904 2.000 10000.000 0.000 -0.505
10 30.00 1200.01 428 888 2.000 10000.000 0.000 -0.505
11 33.00 1200.01 379 831 2.000 10000.000 0.000 -0.505
12 36.00 1200.01 362 866 2.000 10000.000 0.000 -0.505
13 39.00 1200.01 389 901 2.000 10000.000 0.000 -0.505
14 42.00 1200.01 394 953 2.000 10000.000 0.000 -0.505
15 45.00 1200.01 448 1049 2.000 10000.000 0.000 -0.505
16 48.00 1200.01 442 1118 2.000 10000.000 0.000 -0.505
17 51.00 1200.01 417 1108 2.000 10000.000 0.000 -0.505
18 54.00 1200.01 460 1198 2.000 10000.000 0.000 -0.505
19 57.00 1200.01 454 1246 2.000 10000.000 0.000 -0.505
20 60.00 1200.01 482 1273 2.000 10000.000 0.000 -0.505
21 63.00 1200.01 461 1326 2.000 10000.000 0.000 -0.505
22 66.00 1200.01 496 1359 2.000 10000.000 0.000 -0.505
23 69.00 1200.01 504 1319 2.000 10000.000 0.000 -0.505
24 72.00 1200.01 475 1429 2.000 10000.000 0.000 -0.505
25 75.00 1200.01 452 1376 2.000 10000.000 0.000 -0.505
26 78.00 1200.01 437 1343 2.000 10000.000 0.000 -0.505
27 81.00 1200.01 412 1279 2.000 10000.000 0.000 -0.505
28 84.00 1200.01 428 1297 2.000 10000.000 0.000 -0.505
29 87.00 1200.01 451 1300 2.000 10000.000 0.000 -0.505
30 90.00 1200.01 414 1312 2.000 10000.000 0.000 -0.505
31 93.00 1200.01 441 1347 2.000 10000.000 0.000 -0.505
32 96.00 1200.01 438 1351 2.000 10000.000 0.000 -0.505
33 99.00 1200.01 443 1292 2.000 10000.000 0.000 -0.505
34 102.00 1200.01 438 1393 2.000 10000.000 0.000 -0.505
35 105.00 1200.01 468 1343 2.000 10000.000 0.000 -0.505
36 108.00 1200.01 450 1381 2.000 10000.000 0.000 -0.505
37 111.00 1200.01 441 1239 2.000 10000.000 0.000 -0.505
38 114.00 1200.01 428 1251 2.000 10000.000 0.000 -0.505
39 117.00 1200.01 365 1251 2.000 10000.000 0.000 -0.505
40 120.00 1200.01 409 1120 2.000 10000.000 0.000 -0.505
41 123.00 1200.01 402 1057 2.000 10000.000 0.000 -0.505
42 126.00 1200.01 390 1025 2.000 10000.000 0.000 -0.505
43 129.00 1200.01 386 951 2.000 10000.000 0.000 -0.505
44 132.00 1200.01 397 959 2.000 10000.000 0.000 -0.505
45 135.00 1200.01 371 906 2.000 10000.000 0.000 -0.505
46 138.00 1200.01 385 903 2.000 10000.000 0.000 -0.505
47 141.00 1200.01 400 891 2.000 10000.000 0.000 -0.505
48 144.00 1200.01 430 918 2.000 10000.000 0.000 -0.505
49 147.00 1200.01 416 929 2.000 10000.000 0.000 -0.505
50 150.00 1200.01 401 1069 2.000 10000.000 0.000 -0.505
51 153.00 1200.01 429 1077 2.000 10000.000 0.000 -0.505
52 156.00 1200.01 453 1254 2.000 10000.000 0.000 -0.505
53 159.00 1200.01 469 1290 2.000 10000.000 0.000 -0.505
54 162.00 1200.01 498 1337 2.000 10000.000 0.000 -0.505
55 165.00 1200.01 474 1343 2.000 10000.000 0.000 -0.505
56 168.00 1200.01 451 1344 2.000 10000.000 0.000 -0.505
57 171.00 1200.01 429 1275 2.000 10000.000 0.000 -0.505
58 174.00 1200.01 441 1395 2.000 10000.000 0.000 -0.505
59 177.00 1200.01 428 1322 2.000 10000.000 0.000 -0.505
60 180.00 1200.01 482 1298 2.000 10000.000 0.000 -0.505
61 183.00 1200.01 446 1380 2.000 10000.000 0.000 -0.505
62 186.00 1200.01 442 1333 2.000 10000.000 0.000 -0.505
63 189.00 1200.01 420 1282 2.000 10000.000 0.000 -0.505
64 192.00 1200.01 451 1262 2.000 10000.000 0.000 -0.505
65 195.00 1200.01 443 1351 2.000 10000.000 0.000 -0.505
66 198.00 1200.01 451 1327 2.000 10000.000 0.000 -0.505
67 201.00 1200.01 461 1356 2.000 10000.000 0.000 -0.505
68 204.00 1200.01 432 1356 2.000 10000.000 0.000 -0.505
69 207.00 1200.01 446 1273 2.000 10000.000 0.000 -0.505
70 210.00 1200.01 458 1326 2.000 10000.000 0.000 -0.505
71 213.00 1200.01 432 1312 2.000 10000.000 0.000 -0.505
72 216.00 1200.01 435 1209 2.000 10000.000 0.000 -0.505
73 219.00 1200.01 419 1177 2.000 10000.000 0.000 -0.505
74 222.00 1200.01 399 1098 2.000 10000.000 0.000 -0.505
75 225.00 1200.01 403 1035 2.000 10000.000 0.000 -0.505
76 228.00 1200.01 366 957 2.000 10000.000 0.000 -0.505
77 231.00 1200.01 375 885 2.000 10000.000 0.000 -0.505
78 234.00 1200.01 367 923 2.000 10000.000 0.000 -0.505
79 237.00 1200.01 374 883 2.000 10000.000 0.000 -0.505
80 240.00 1200.01 404 989 2.000 10000.000 0.000 -0.505
81 243.00 1200.01 391 900 2.000 10000.000 0.000 -0.505
82 246.00 1200.01 444 1043 2.000 10000.000 0.000 -0.505
83 249.00 1200.01 423 993 2.000 10000.000 0.000 -0.505
84 252.00 1200.01 429 1125 2.000 10000.000 0.000 -0.505
85 255.00 1200.01 423 1130 2.000 10000.000 0.000 -0.505
86 258.00 1200.01 441 1227 2.000 10000.000 0.000 -0.505
87 261.00 1200.01 430 1367 2.000 10000.000 0.000 -0.505
88 264.00 1200.01 496 1305 2.000 10000.000 0.000 -0.505
89 267.00 1200.01 417 1308 2.000 10000.000 0.000 -0.505
90 270.00 1200.01 415 1339 2.000 10000.000 0.000 -0.505
91 273.00 1200.01 463 1307 2.000 10000.000 0.000 -0.505
92 276.00 1200.01 446 1345 2.000 10000.000 0.000 -0.505
93 279.00 1200.01 445 1261 2.000 10000.000 0.000 -0.505
94 282.00 1200.01 461 1340 2.000 10000.000 0.000 -0.505
95 285.00 1200.01 401 1333 2.000 10000.000 0.000 -0.505
96 288.00 1200.01 447 1329 2.000 10000.000 0.000 -0.505
97 291.00 1200.01 438 1338 2.000 10000.000 0.000 -0.505
98 294.00 1200.01 409 1295 2.000 10000.000 0.000 -0.505
99 297.00 1200.01 448 1335 2.000 10000.000 0.000 -0.505
100 300.00 1200.01 468 1386 2.000 10000.000 0.000 -0.505
101 303.00 1200.01 367 1071 2.000 10000.000 0.000 -0.505
