# BinNR microsec tot-time (s)  O-Beam AUX Ampl(V) f(Hz) phase(deg) chi(pos)
0 0.00 1200.00 119 335 2.000 10000.000 0.000 0.901
1 3.00 1200.00 278 660 2.000 10000.000 0.000 0.901
2 6.00 1200.00 297 744 2.000 10000.000 0.000 0.901
3 9.00 1200.00 349 853 2.000 10000.000 0.000 0.901
4 12.00 1200.00 340 922 2.000 10000.000 0.000 0.901
5 15.00 1200.00 327 936 2.000 10000.000 0.000 0.901
6 18.00 1200.00 368 1067 2.000 10000.000 0.000 0.901
7 21.00 1200.00 368 1072 2.000 10000.000 0.000 0.901
8 24.00 1200.00 393 1249 2.000 10000.000 0.000 0.901
9 27.00 1200.00 414 1290 2.000 10000.000 0.000 0.901
10 30.00 1200.00 420 1307 2.000 10000.000 0.000 0.901
11 33.00 1200.00 403 1293 2.000 10000.000 0.000 0.901
12 36.00 1200.00 403 1292 2.000 10000.000 0.000 0.901
13 39.00 1200.00 396 1297 2.000 10000.000 0.000 0.901
14 42.00 1200.00 372 1270 2.000 10000.000 0.000 0.901
15 45.00 1200.00 346 1230 2.000 10000.000 0.000 0.901
16 48.00 1200.00 345 1154 2.000 10000.000 0.000 0.901
17 51.00 1200.00 304 1075 2.000 10000.000 0.000 0.901
18 54.00 1200.00 265 1007 2.000 10000.000 0.000 0.901
19 57.00 1200.00 229 915 2.000 10000.000 0.000 0.901
20 60.00 1200.00 233 866 2.000 10000.000 0.000 0.901
21 63.00 1200.00 194 796 2.000 10000.000 0.000 0.901
22 66.00 1200.00 199 709 2.000 10000.000 0.000 0.901
23 69.00 1200.00 199 623 2.000 10000.000 0.000 0.901
24 72.00 1200.00 185 522 2.000 10000.000 0.000 0.901
25 75.00 1200.00 174 474 2.000 10000.000 0.000 0.901
26 78.00 1200.00 159 423 2.000 10000.000 0.000 0.901
27 81.00 1200.00 161 408 2.000 10000.000 0.000 0.901
28 84.00 1200.00 162 396 2.000 10000.000 0.000 0.901
29 87.00 1200.00 147 342 2.000 10000.000 0.000 0.901
30 90.00 1200.00 165 373 2.000 10000.000 0.000 0.901
31 93.00 1200.00 233 417 2.000 10000.000 0.000 0.901
32 96.00 1200.00 242 445 2.000 10000.000 0.000 0.901
33 99.00 1200.00 232 497 2.000 10000.000 0.000 0.901
34 102.00 1200.00 265 620 2.000 10000.000 0.000 0.901
35 105.00 1200.00 265 607 2.000 10000.000 0.000 0.901
36 108.00 1200.00 311 772 2.000 10000.000 0.000 0.901
37 111.00 1200.00 313 790 2.000 10000.000 0.000 0.901
38 114.00 1200.00 377 925 2.000 10000.000 0.000 0.901
39 117.00 1200.00 360 1027 2.000 10000.000 0.000 0.901
40 120.00 1200.00 410 1083 2.000 10000.000 0.000 0.901
41 123.00 1200.00 397 1188 2.000 10000.000 0.000 0.901
42 126.00 1200.00 412 1172 2.000 10000.000 0.000 0.901
43 129.00 1200.00 402 1207 2.000 10000.000 0.000 0.901
44 132.00 1200.00 388 1269 2.000 10000.000 0.000 0.901
45 135.00 1200.00 379 1261 2.000 10000.000 0.000 0.901
46 138.00 1200.00 428 1254 2.000 10000.000 0.000 0.901
47 141.00 1200.00 373 1281 2.000 10000.000 0.000 0.901
48 144.00 1200.00 365 1238 2.000 10000.000 0.000 0.901
49 147.00 1200.00 336 1175 2.000 10000.000 0.000 0.901
50 150.00 1200.00 371 1214 2.000 10000.000 0.000 0.901
51 153.00 1200.00 316 1032 2.000 10000.000 0.000 0.901
52 156.00 1200.00 306 993 2.000 10000.000 0.000 0.901
53 159.00 1200.00 260 880 2.000 10000.000 0.000 0.901
54 162.00 1200.00 284 875 2.000 10000.000 0.000 0.901
55 165.00 1200.00 225 722 2.000 10000.000 0.000 0.901
56 168.00 1200.00 212 670 2.000 10000.000 0.000 0.901
57 171.00 1200.00 185 608 2.000 10000.000 0.000 0.901
58 174.00 1200.00 197 506 2.000 10000.000 0.000 0.901
59 177.00 1200.00 176 400 2.000 10000.000 0.000 0.901
60 180.00 1200.00 163 425 2.000 10000.000 0.000 0.901
61 183.00 1200.00 177 326 2.000 10000.000 0.000 0.901
62 186.00 1200.00 173 355 2.000 10000.000 0.000 0.901
63 189.00 1200.00 164 369 2.000 10000.000 0.000 0.901
64 192.00 1200.00 175 384 2.000 10000.000 0.000 0.901
65 195.00 1200.00 207 439 2.000 10000.000 0.000 0.901
66 198.00 1200.00 219 503 2.000 10000.000 0.000 0.901
67 201.00 1200.00 235 534 2.000 10000.000 0.000 0.901
68 204.00 1200.00 269 603 2.000 10000.000 0.000 0.901
69 207.00 1200.00 273 675 2.000 10000.000 0.000 0.901
70 210.00 1200.00 347 774 2.000 10000.000 0.000 0.901
71 213.00 1200.00 321 868 2.000 10000.000 0.000 0.901
72 216.00 1200.00 352 1009 2.000 10000.000 0.000 0.901
73 219.00 1200.00 363 1110 2.000 10000.000 0.000 0.901
74 222.00 1200.00 371 1128 2.000 10000.000 0.000 0.901
75 225.00 1200.00 370 1167 2.000 10000.000 0.000 0.901
76 228.00 1200.00 417 1243 2.000 10000.000 0.000 0.901
77 231.00 1200.00 357 1245 2.000 10000.000 0.000 0.901
78 234.00 1200.00 361 1325 2.000 10000.000 0.000 0.901
79 237.00 1200.00 401 1271 2.000 10000.000 0.000 0.901
80 240.00 1200.00 380 1254 2.000 10000.000 0.000 0.901
81 243.00 1200.00 370 1270 2.000 10000.000 0.000 0.901
82 246.00 1200.00 343 1203 2.000 10000.000 0.000 0.901
83 249.00 1200.00 362 1128 2.000 10000.000 0.000 0.901
84 252.00 1200.00 333 1129 2.000 10000.000 0.000 0.901
85 255.00 1200.00 299 1041 2.000 10000.000 0.000 0.901
86 258.00 1200.00 330 1020 2.000 10000.000 0.000 0.901
87 261.00 1200.00 262 882 2.000 10000.000 0.000 0.901
88 264.00 1200.00 222 807 2.000 10000.000 0.000 0.901
89 267.00 1200.00 214 717 2.000 10000.000 0.000 0.901
90 270.00 1200.00 195 563 2.000 10000.000 0.000 0.901
91 273.00 1200.00 193 497 2.000 10000.000 0.000 0.901
92 276.00 1200.00 183 487 2.000 10000.000 0.000 0.901
93 279.00 1200.00 164 423 2.000 10000.000 0.000 0.901
94 282.00 1200.00 184 415 2.000 10000.000 0.000 0.901
95 285.00 1200.00 161 372 2.000 10000.000 0.000 0.901
96 288.00 1200.00 179 400 2.000 10000.000 0.000 0.901
97 291.00 1200.00 193 358 2.000 10000.000 0.000 0.901
98 294.00 1200.00 198 421 2.000 10000.000 0.000 0.901
99 297.00 1200.00 216 464 2.000 10000.000 0.000 0.901
100 300.00 1200.00 221 511 2.000 10000.000 0.000 0.901
101 303.00 1200.00 204 513 2.000 10000.000 0.000 0.901
