# BinNR microsec tot-time (s)  O-Beam AUX Ampl(V) f(Hz) phase(deg) chi(pos)
0 0.00 1200.01 85 160 2.000 10000.000 0.000 -1.494
1 3.00 1200.01 173 265 2.000 10000.000 0.000 -1.494
2 6.00 1200.01 199 273 2.000 10000.000 0.000 -1.494
3 9.00 1200.01 156 272 2.000 10000.000 0.000 -1.494
4 12.00 1200.01 183 247 2.000 10000.000 0.000 -1.494
5 15.00 1200.01 176 214 2.000 10000.000 0.000 -1.494
6 18.00 1200.01 194 274 2.000 10000.000 0.000 -1.494
7 21.00 1200.01 175 257 2.000 10000.000 0.000 -1.494
8 24.00 1200.01 153 302 2.000 10000.000 0.000 -1.494
9 27.00 1200.01 164 336 2.000 10000.000 0.000 -1.494
10 30.00 1200.01 148 429 2.000 10000.000 0.000 -1.494
11 33.00 1200.01 147 366 2.000 10000.000 0.000 -1.494
12 36.00 1200.01 132 370 2.000 10000.000 0.000 -1.494
13 39.00 1200.01 179 320 2.000 10000.000 0.000 -1.494
14 42.00 1200.01 146 306 2.000 10000.000 0.000 -1.494
15 45.00 1200.01 155 298 2.000 10000.000 0.000 -1.494
16 48.00 1200.01 131 287 2.000 10000.000 0.000 -1.494
17 51.00 1200.01 168 254 2.000 10000.000 0.000 -1.494
18 54.00 1200.01 176 224 2.000 10000.000 0.000 -1.494
19 57.00 1200.01 180 207 2.000 10000.000 0.000 -1.494
20 60.00 1200.01 201 265 2.000 10000.000 0.000 -1.494
21 63.00 1200.01 227 280 2.000 10000.000 0.000 -1.494
22 66.00 1200.01 209 317 2.000 10000.000 0.000 -1.494
23 69.00 1200.01 230 323 2.000 10000.000 0.000 -1.494
24 72.00 1200.01 235 363 2.000 10000.000 0.000 -1.494
25 75.00 1200.01 246 413 2.000 10000.000 0.000 -1.494
26 78.00 1200.01 242 435 2.000 10000.000 0.000 -1.494
27 81.00 1200.01 258 477 2.000 10000.000 0.000 -1.494
28 84.00 1200.01 227 481 2.000 10000.000 0.000 -1.494
29 87.00 1200.01 235 532 2.000 10000.000 0.000 -1.494
30 90.00 1200.01 230 507 2.000 10000.000 0.000 -1.494
31 93.00 1200.01 218 501 2.000 10000.000 0.000 -1.494
32 96.00 1200.01 231 444 2.000 10000.000 0.000 -1.494
33 99.00 1200.01 193 403 2.000 10000.000 0.000 -1.494
34 102.00 1200.01 209 338 2.000 10000.000 0.000 -1.494
35 105.00 1200.01 183 337 2.000 10000.000 0.000 -1.494
36 108.00 1200.01 194 270 2.000 10000.000 0.000 -1.494
37 111.00 1200.01 175 224 2.000 10000.000 0.000 -1.494
38 114.00 1200.01 161 225 2.000 10000.000 0.000 -1.494
39 117.00 1200.01 163 270 2.000 10000.000 0.000 -1.494
40 120.00 1200.01 190 253 2.000 10000.000 0.000 -1.494
41 123.00 1200.01 166 294 2.000 10000.000 0.000 -1.494
42 126.00 1200.01 170 328 2.000 10000.000 0.000 -1.494
43 129.00 1200.01 190 349 2.000 10000.000 0.000 -1.494
44 132.00 1200.01 202 356 2.000 10000.000 0.000 -1.494
45 135.00 1200.01 168 364 2.000 10000.000 0.000 -1.494
46 138.00 1200.01 175 361 2.000 10000.000 0.000 -1.494
47 141.00 1200.01 144 328 2.000 10000.000 0.000 -1.494
48 144.00 1200.01 160 354 2.000 10000.000 0.000 -1.494
49 147.00 1200.01 157 315 2.000 10000.000 0.000 -1.494
50 150.00 1200.01 169 272 2.000 10000.000 0.000 -1.494
51 153.00 1200.01 159 248 2.000 10000.000 0.000 -1.494
52 156.00 1200.01 171 221 2.000 10000.000 0.000 -1.494
53 159.00 1200.01 175 242 2.000 10000.000 0.000 -1.494
54 162.00 1200.01 162 228 2.000 10000.000 0.000 -1.494
55 165.00 1200.01 207 242 2.000 10000.000 0.000 -1.494
56 168.00 1200.01 190 291 2.000 10000.000 0.000 -1.494
57 171.00 1200.01 211 352 2.000 10000.000 0.000 -1.494
58 174.00 1200.01 242 394 2.000 10000.000 0.000 -1.494
59 177.00 1200.01 246 437 2.000 10000.000 0.000 -1.494
60 180.00 1200.01 224 479 2.000 10000.000 0.000 -1.494
61 183.00 1200.01 251 475 2.000 10000.000 0.000 -1.494
62 186.00 1200.01 278 544 2.000 10000.000 0.000 -1.494
63 189.00 1200.01 234 516 2.000 10000.000 0.000 -1.494
64 192.00 1200.01 233 506 2.000 10000.000 0.000 -1.494
65 195.00 1200.01 236 479 2.000 10000.000 0.000 -1.494
66 198.00 1200.01 209 429 2.000 10000.000 0.000 -1.494
67 201.00 1200.01 215 374 2.000 10000.000 0.000 -1.494
68 204.00 1200.01 226 347 2.000 10000.000 0.000 -1.494
69 207.00 1200.01 197 270 2.000 10000.000 0.000 -1.494
70 210.00 1200.01 154 277 2.000 10000.000 0.000 -1.494
71 213.00 1200.01 190 238 2.000 10000.000 0.000 -1.494
72 216.00 1200.01 186 208 2.000 10000.000 0.000 -1.494
73 219.00 1200.01 184 260 2.000 10000.000 0.000 -1.494
74 222.00 1200.01 151 280 2.000 10000.000 0.000 -1.494
75 225.00 1200.01 194 322 2.000 10000.000 0.000 -1.494
76 228.00 1200.01 149 300 2.000 10000.000 0.000 -1.494
77 231.00 1200.01 174 327 2.000 10000.000 0.000 -1.494
78 234.00 1200.01 168 362 2.000 10000.000 0.000 -1.494
79 237.00 1200.01 181 380 2.000 10000.000 0.000 -1.494
80 240.00 1200.01 161 363 2.000 10000.000 0.000 -1.494
81 243.00 1200.01 145 339 2.000 10000.000 0.000 -1.494
82 246.00 1200.01 158 327 2.000 10000.000 0.000 -1.494
83 249.00 1200.01 162 292 2.000 10000.000 0.000 -1.494
84 252.00 1200.01 163 268 2.000 10000.000 0.000 -1.494
85 255.00 1200.01 183 301 2.000 10000.000 0.000 -1.494
86 258.00 1200.01 166 240 2.000 10000.000 0.000 -1.494
87 261.00 1200.01 161 243 2.000 10000.000 0.000 -1.494
88 264.00 1200.01 190 304 2.000 10000.000 0.000 -1.494
89 267.00 1200.01 183 293 2.000 10000.000 0.000 -1.494
90 270.00 1200.01 207 332 2.000 10000.000 0.000 -1.494
91 273.00 1200.01 220 377 2.000 10000.000 0.000 -1.494
92 276.00 1200.01 258 452 2.000 10000.000 0.000 -1.494
93 279.00 1200.01 237 475 2.000 10000.000 0.000 -1.494
94 282.00 1200.01 268 510 2.000 10000.000 0.000 -1.494
95 285.00 1200.01 248 521 2.000 10000.000 0.000 -1.494
96 288.00 1200.01 268 509 2.000 10000.000 0.000 -1.494
97 291.00 1200.01 229 508 2.000 10000.000 0.000 -1.494
98 294.00 1200.01 213 499 2.000 10000.000 0.000 -1.494
99 297.00 1200.01 215 410 2.000 10000.000 0.000 -1.494
100 300.00 1200.01 195 384 2.000 10000.000 0.000 -1.494
101 303.00 1200.01 145 326 2.000 10000.000 0.000 -1.494
