# BinNR microsec tot-time (s)  O-Beam AUX Ampl(V) f(Hz) phase(deg) chi(pos)
1 1.00 1200.01 294 1004 5.000 80000.000 0.000 1.505
2 2.00 1200.01 291 962 5.000 80000.000 0.000 1.505
3 3.00 1200.01 277 949 5.000 80000.000 0.000 1.505
4 4.00 1200.01 291 942 5.000 80000.000 0.000 1.505
5 5.00 1200.01 317 920 5.000 80000.000 0.000 1.505
6 6.00 1200.01 341 963 5.000 80000.000 0.000 1.505
7 7.00 1200.01 290 1031 5.000 80000.000 0.000 1.505
8 8.00 1200.01 320 1067 5.000 80000.000 0.000 1.505
9 9.00 1200.01 298 968 5.000 80000.000 0.000 1.505
10 10.00 1200.01 313 1012 5.000 80000.000 0.000 1.505
11 11.00 1200.01 288 924 5.000 80000.000 0.000 1.505
12 12.00 1200.01 293 978 5.000 80000.000 0.000 1.505
13 13.00 1200.01 281 838 5.000 80000.000 0.000 1.505
14 14.00 1200.01 316 851 5.000 80000.000 0.000 1.505
15 15.00 1200.01 268 817 5.000 80000.000 0.000 1.505
16 16.00 1200.01 307 878 5.000 80000.000 0.000 1.505
17 17.00 1200.01 272 792 5.000 80000.000 0.000 1.505
18 18.00 1200.01 288 827 5.000 80000.000 0.000 1.505
19 19.00 1200.01 284 872 5.000 80000.000 0.000 1.505
20 20.00 1200.01 316 949 5.000 80000.000 0.000 1.505
21 21.00 1200.01 269 979 5.000 80000.000 0.000 1.505
22 22.00 1200.01 276 957 5.000 80000.000 0.000 1.505
23 23.00 1200.01 318 930 5.000 80000.000 0.000 1.505
24 24.00 1200.01 334 950 5.000 80000.000 0.000 1.505
25 25.00 1200.01 303 875 5.000 80000.000 0.000 1.505
26 26.00 1200.01 328 849 5.000 80000.000 0.000 1.505
27 27.00 1200.01 270 784 5.000 80000.000 0.000 1.505
28 28.00 1200.01 288 884 5.000 80000.000 0.000 1.505
29 29.00 1200.01 255 824 5.000 80000.000 0.000 1.505
30 30.00 1200.01 307 873 5.000 80000.000 0.000 1.505
31 31.00 1200.01 270 879 5.000 80000.000 0.000 1.505
32 32.00 1200.01 349 918 5.000 80000.000 0.000 1.505
33 33.00 1200.01 294 917 5.000 80000.000 0.000 1.505
34 34.00 1200.01 296 952 5.000 80000.000 0.000 1.505
35 35.00 1200.01 302 968 5.000 80000.000 0.000 1.505
36 36.00 1200.01 314 941 5.000 80000.000 0.000 1.505
37 37.00 1200.01 281 847 5.000 80000.000 0.000 1.505
38 38.00 1200.01 338 912 5.000 80000.000 0.000 1.505
39 39.00 1200.01 287 859 5.000 80000.000 0.000 1.505
40 40.00 1200.01 310 908 5.000 80000.000 0.000 1.505
41 41.00 1200.01 292 835 5.000 80000.000 0.000 1.505
42 42.00 1200.01 315 877 5.000 80000.000 0.000 1.505
43 43.00 1200.01 272 919 5.000 80000.000 0.000 1.505
44 44.00 1200.01 295 981 5.000 80000.000 0.000 1.505
45 45.00 1200.01 282 972 5.000 80000.000 0.000 1.505
46 46.00 1200.01 283 966 5.000 80000.000 0.000 1.505
47 47.00 1200.01 303 949 5.000 80000.000 0.000 1.505
48 48.00 1200.01 300 1036 5.000 80000.000 0.000 1.505
49 49.00 1200.01 282 978 5.000 80000.000 0.000 1.505
50 50.00 1200.01 279 968 5.000 80000.000 0.000 1.505
51 51.00 1200.01 293 878 5.000 80000.000 0.000 1.505
52 52.00 1200.01 307 881 5.000 80000.000 0.000 1.505
53 53.00 1200.01 292 826 5.000 80000.000 0.000 1.505
54 54.00 1200.01 345 844 5.000 80000.000 0.000 1.505
55 55.00 1200.01 295 829 5.000 80000.000 0.000 1.505
56 56.00 1200.01 331 921 5.000 80000.000 0.000 1.505
57 57.00 1200.01 317 932 5.000 80000.000 0.000 1.505
58 58.00 1200.01 320 1008 5.000 80000.000 0.000 1.505
59 59.00 1200.01 272 926 5.000 80000.000 0.000 1.505
60 60.00 1200.01 318 1019 5.000 80000.000 0.000 1.505
61 61.00 1200.01 289 965 5.000 80000.000 0.000 1.505
62 62.00 1200.01 317 982 5.000 80000.000 0.000 1.505
63 63.00 1200.01 278 894 5.000 80000.000 0.000 1.505
64 64.00 1200.01 289 881 5.000 80000.000 0.000 1.505
65 65.00 1200.01 273 804 5.000 80000.000 0.000 1.505
66 66.00 1200.01 298 867 5.000 80000.000 0.000 1.505
67 67.00 1200.01 284 830 5.000 80000.000 0.000 1.505
68 68.00 1200.01 318 892 5.000 80000.000 0.000 1.505
69 69.00 1200.01 307 852 5.000 80000.000 0.000 1.505
70 70.00 1200.01 322 989 5.000 80000.000 0.000 1.505
71 71.00 1200.01 285 938 5.000 80000.000 0.000 1.505
72 72.00 1200.01 329 1065 5.000 80000.000 0.000 1.505
73 73.00 1200.01 287 999 5.000 80000.000 0.000 1.505
74 74.00 1200.01 325 970 5.000 80000.000 0.000 1.505
75 75.00 1200.01 319 927 5.000 80000.000 0.000 1.505
76 76.00 1200.01 348 878 5.000 80000.000 0.000 1.505
77 77.00 1200.01 299 854 5.000 80000.000 0.000 1.505
78 78.00 1200.01 327 890 5.000 80000.000 0.000 1.505
79 79.00 1200.01 289 804 5.000 80000.000 0.000 1.505
80 80.00 1200.01 339 930 5.000 80000.000 0.000 1.505
81 81.00 1200.01 311 839 5.000 80000.000 0.000 1.505
82 82.00 1200.01 305 947 5.000 80000.000 0.000 1.505
83 83.00 1200.01 313 959 5.000 80000.000 0.000 1.505
84 84.00 1200.01 316 1036 5.000 80000.000 0.000 1.505
85 85.00 1200.01 305 1031 5.000 80000.000 0.000 1.505
86 86.00 1200.01 302 1027 5.000 80000.000 0.000 1.505
87 87.00 1200.01 307 945 5.000 80000.000 0.000 1.505
88 88.00 1200.01 323 927 5.000 80000.000 0.000 1.505
89 89.00 1200.01 329 802 5.000 80000.000 0.000 1.505
90 90.00 1200.01 329 770 5.000 80000.000 0.000 1.505
91 91.00 1200.01 298 710 5.000 80000.000 0.000 1.505
92 92.00 1200.01 309 736 5.000 80000.000 0.000 1.505
93 93.00 1200.01 319 663 5.000 80000.000 0.000 1.505
94 94.00 1200.01 323 777 5.000 80000.000 0.000 1.505
95 95.00 1200.01 296 779 5.000 80000.000 0.000 1.505
96 96.00 1200.01 316 867 5.000 80000.000 0.000 1.505
97 97.00 1200.01 304 873 5.000 80000.000 0.000 1.505
98 98.00 1200.01 324 1056 5.000 80000.000 0.000 1.505
99 99.00 1200.01 302 1092 5.000 80000.000 0.000 1.505
100 100.00 1200.01 322 1146 5.000 80000.000 0.000 1.505
101 101.00 1200.01 293 1132 5.000 80000.000 0.000 1.505
102 102.00 1200.01 313 1160 5.000 80000.000 0.000 1.505
