# BinNR microsec tot-time (s)  O-Beam AUX Ampl_1(V) f_1(Hz) phase_1(deg) Ampl_2(V) f_2(Hz) phase_2(deg) chi(pos)
0 0.00 1500.00 478 1159 0.000 0.000 0.000 2.050 10000.000 0.000 -0.341
1 3.00 1500.00 923 2437 0.000 0.000 0.000 2.050 10000.000 0.000 -0.341
2 6.00 1500.00 900 2425 0.000 0.000 0.000 2.050 10000.000 0.000 -0.341
3 9.00 1500.00 999 2464 0.000 0.000 0.000 2.050 10000.000 0.000 -0.341
4 12.00 1500.00 958 2420 0.000 0.000 0.000 2.050 10000.000 0.000 -0.341
5 15.00 1500.00 998 2405 0.000 0.000 0.000 2.050 10000.000 0.000 -0.341
6 18.00 1500.00 1029 2468 0.000 0.000 0.000 2.050 10000.000 0.000 -0.341
7 21.00 1500.00 951 2495 0.000 0.000 0.000 2.050 10000.000 0.000 -0.341
8 24.00 1500.00 944 2459 0.000 0.000 0.000 2.050 10000.000 0.000 -0.341
9 27.00 1500.00 945 2384 0.000 0.000 0.000 2.050 10000.000 0.000 -0.341
10 30.00 1500.00 963 2488 0.000 0.000 0.000 2.050 10000.000 0.000 -0.341
11 33.00 1500.00 907 2350 0.000 0.000 0.000 2.050 10000.000 0.000 -0.341
12 36.00 1500.00 959 2412 0.000 0.000 0.000 2.050 10000.000 0.000 -0.341
13 39.00 1500.00 951 2356 0.000 0.000 0.000 2.050 10000.000 0.000 -0.341
14 42.00 1500.00 929 2488 0.000 0.000 0.000 2.050 10000.000 0.000 -0.341
15 45.00 1500.00 953 2422 0.000 0.000 0.000 2.050 10000.000 0.000 -0.341
16 48.00 1500.00 965 2451 0.000 0.000 0.000 2.050 10000.000 0.000 -0.341
17 51.00 1500.00 944 2470 0.000 0.000 0.000 2.050 10000.000 0.000 -0.341
18 54.00 1500.00 919 2465 0.000 0.000 0.000 2.050 10000.000 0.000 -0.341
19 57.00 1500.00 971 2440 0.000 0.000 0.000 2.050 10000.000 0.000 -0.341
20 60.00 1500.00 937 2456 0.000 0.000 0.000 2.050 10000.000 0.000 -0.341
21 63.00 1500.00 922 2464 0.000 0.000 0.000 2.050 10000.000 0.000 -0.341
22 66.00 1500.00 975 2534 0.000 0.000 0.000 2.050 10000.000 0.000 -0.341
23 69.00 1500.00 877 2425 0.000 0.000 0.000 2.050 10000.000 0.000 -0.341
24 72.00 1500.00 959 2377 0.000 0.000 0.000 2.050 10000.000 0.000 -0.341
25 75.00 1500.00 982 2454 0.000 0.000 0.000 2.050 10000.000 0.000 -0.341
26 78.00 1500.00 964 2453 0.000 0.000 0.000 2.050 10000.000 0.000 -0.341
27 81.00 1500.00 931 2429 0.000 0.000 0.000 2.050 10000.000 0.000 -0.341
28 84.00 1500.00 965 2509 0.000 0.000 0.000 2.050 10000.000 0.000 -0.341
29 87.00 1500.00 893 2546 0.000 0.000 0.000 2.050 10000.000 0.000 -0.341
30 90.00 1500.00 939 2491 0.000 0.000 0.000 2.050 10000.000 0.000 -0.341
31 93.00 1500.00 887 2355 0.000 0.000 0.000 2.050 10000.000 0.000 -0.341
32 96.00 1500.00 948 2506 0.000 0.000 0.000 2.050 10000.000 0.000 -0.341
33 99.00 1500.00 940 2378 0.000 0.000 0.000 2.050 10000.000 0.000 -0.341
34 102.00 1500.00 901 2450 0.000 0.000 0.000 2.050 10000.000 0.000 -0.341
35 105.00 1500.00 924 2378 0.000 0.000 0.000 2.050 10000.000 0.000 -0.341
36 108.00 1500.00 966 2438 0.000 0.000 0.000 2.050 10000.000 0.000 -0.341
37 111.00 1500.00 960 2320 0.000 0.000 0.000 2.050 10000.000 0.000 -0.341
38 114.00 1500.00 921 2470 0.000 0.000 0.000 2.050 10000.000 0.000 -0.341
39 117.00 1500.00 936 2531 0.000 0.000 0.000 2.050 10000.000 0.000 -0.341
40 120.00 1500.00 1010 2435 0.000 0.000 0.000 2.050 10000.000 0.000 -0.341
41 123.00 1500.00 973 2377 0.000 0.000 0.000 2.050 10000.000 0.000 -0.341
42 126.00 1500.00 987 2427 0.000 0.000 0.000 2.050 10000.000 0.000 -0.341
43 129.00 1500.00 949 2445 0.000 0.000 0.000 2.050 10000.000 0.000 -0.341
44 132.00 1500.00 940 2497 0.000 0.000 0.000 2.050 10000.000 0.000 -0.341
45 135.00 1500.00 934 2468 0.000 0.000 0.000 2.050 10000.000 0.000 -0.341
46 138.00 1500.00 999 2419 0.000 0.000 0.000 2.050 10000.000 0.000 -0.341
47 141.00 1500.00 937 2400 0.000 0.000 0.000 2.050 10000.000 0.000 -0.341
48 144.00 1500.00 938 2480 0.000 0.000 0.000 2.050 10000.000 0.000 -0.341
49 147.00 1500.00 952 2457 0.000 0.000 0.000 2.050 10000.000 0.000 -0.341
50 150.00 1500.00 1033 2401 0.000 0.000 0.000 2.050 10000.000 0.000 -0.341
51 153.00 1500.00 937 2473 0.000 0.000 0.000 2.050 10000.000 0.000 -0.341
52 156.00 1500.00 992 2464 0.000 0.000 0.000 2.050 10000.000 0.000 -0.341
53 159.00 1500.00 940 2356 0.000 0.000 0.000 2.050 10000.000 0.000 -0.341
54 162.00 1500.00 942 2430 0.000 0.000 0.000 2.050 10000.000 0.000 -0.341
55 165.00 1500.00 980 2496 0.000 0.000 0.000 2.050 10000.000 0.000 -0.341
56 168.00 1500.00 974 2426 0.000 0.000 0.000 2.050 10000.000 0.000 -0.341
57 171.00 1500.00 925 2422 0.000 0.000 0.000 2.050 10000.000 0.000 -0.341
58 174.00 1500.00 918 2476 0.000 0.000 0.000 2.050 10000.000 0.000 -0.341
59 177.00 1500.00 910 2393 0.000 0.000 0.000 2.050 10000.000 0.000 -0.341
60 180.00 1500.00 966 2438 0.000 0.000 0.000 2.050 10000.000 0.000 -0.341
61 183.00 1500.00 952 2374 0.000 0.000 0.000 2.050 10000.000 0.000 -0.341
62 186.00 1500.00 994 2414 0.000 0.000 0.000 2.050 10000.000 0.000 -0.341
63 189.00 1500.00 954 2469 0.000 0.000 0.000 2.050 10000.000 0.000 -0.341
64 192.00 1500.00 932 2391 0.000 0.000 0.000 2.050 10000.000 0.000 -0.341
65 195.00 1500.00 937 2454 0.000 0.000 0.000 2.050 10000.000 0.000 -0.341
66 198.00 1500.00 948 2478 0.000 0.000 0.000 2.050 10000.000 0.000 -0.341
67 201.00 1500.00 922 2374 0.000 0.000 0.000 2.050 10000.000 0.000 -0.341
68 204.00 1500.00 974 2572 0.000 0.000 0.000 2.050 10000.000 0.000 -0.341
69 207.00 1500.00 904 2405 0.000 0.000 0.000 2.050 10000.000 0.000 -0.341
70 210.00 1500.00 1002 2427 0.000 0.000 0.000 2.050 10000.000 0.000 -0.341
71 213.00 1500.00 1023 2307 0.000 0.000 0.000 2.050 10000.000 0.000 -0.341
72 216.00 1500.00 898 2469 0.000 0.000 0.000 2.050 10000.000 0.000 -0.341
73 219.00 1500.00 939 2438 0.000 0.000 0.000 2.050 10000.000 0.000 -0.341
74 222.00 1500.00 957 2541 0.000 0.000 0.000 2.050 10000.000 0.000 -0.341
75 225.00 1500.00 869 2360 0.000 0.000 0.000 2.050 10000.000 0.000 -0.341
76 228.00 1500.00 993 2454 0.000 0.000 0.000 2.050 10000.000 0.000 -0.341
77 231.00 1500.00 955 2489 0.000 0.000 0.000 2.050 10000.000 0.000 -0.341
78 234.00 1500.00 921 2471 0.000 0.000 0.000 2.050 10000.000 0.000 -0.341
79 237.00 1500.00 969 2430 0.000 0.000 0.000 2.050 10000.000 0.000 -0.341
80 240.00 1500.00 917 2554 0.000 0.000 0.000 2.050 10000.000 0.000 -0.341
81 243.00 1500.00 885 2352 0.000 0.000 0.000 2.050 10000.000 0.000 -0.341
82 246.00 1500.00 991 2467 0.000 0.000 0.000 2.050 10000.000 0.000 -0.341
83 249.00 1500.00 951 2377 0.000 0.000 0.000 2.050 10000.000 0.000 -0.341
84 252.00 1500.00 946 2543 0.000 0.000 0.000 2.050 10000.000 0.000 -0.341
85 255.00 1500.00 941 2383 0.000 0.000 0.000 2.050 10000.000 0.000 -0.341
86 258.00 1500.00 947 2464 0.000 0.000 0.000 2.050 10000.000 0.000 -0.341
87 261.00 1500.00 946 2468 0.000 0.000 0.000 2.050 10000.000 0.000 -0.341
88 264.00 1500.00 984 2440 0.000 0.000 0.000 2.050 10000.000 0.000 -0.341
89 267.00 1500.00 935 2460 0.000 0.000 0.000 2.050 10000.000 0.000 -0.341
90 270.00 1500.00 915 2589 0.000 0.000 0.000 2.050 10000.000 0.000 -0.341
91 273.00 1500.00 942 2439 0.000 0.000 0.000 2.050 10000.000 0.000 -0.341
92 276.00 1500.00 928 2392 0.000 0.000 0.000 2.050 10000.000 0.000 -0.341
93 279.00 1500.00 912 2484 0.000 0.000 0.000 2.050 10000.000 0.000 -0.341
94 282.00 1500.00 900 2391 0.000 0.000 0.000 2.050 10000.000 0.000 -0.341
95 285.00 1500.00 961 2386 0.000 0.000 0.000 2.050 10000.000 0.000 -0.341
96 288.00 1500.00 977 2435 0.000 0.000 0.000 2.050 10000.000 0.000 -0.341
97 291.00 1500.00 938 2443 0.000 0.000 0.000 2.050 10000.000 0.000 -0.341
98 294.00 1500.00 971 2484 0.000 0.000 0.000 2.050 10000.000 0.000 -0.341
99 297.00 1500.00 954 2493 0.000 0.000 0.000 2.050 10000.000 0.000 -0.341
100 300.00 1500.00 1005 2486 0.000 0.000 0.000 2.050 10000.000 0.000 -0.341
101 303.00 1500.00 940 2389 0.000 0.000 0.000 2.050 10000.000 0.000 -0.341
102 306.00 1500.00 869 2461 0.000 0.000 0.000 2.050 10000.000 0.000 -0.341
103 309.00 1500.00 952 2403 0.000 0.000 0.000 2.050 10000.000 0.000 -0.341
104 312.00 1500.00 986 2366 0.000 0.000 0.000 2.050 10000.000 0.000 -0.341
105 315.00 1500.00 962 2394 0.000 0.000 0.000 2.050 10000.000 0.000 -0.341
106 318.00 1500.00 976 2540 0.000 0.000 0.000 2.050 10000.000 0.000 -0.341
107 321.00 1500.00 961 2444 0.000 0.000 0.000 2.050 10000.000 0.000 -0.341
108 324.00 1500.00 974 2477 0.000 0.000 0.000 2.050 10000.000 0.000 -0.341
109 327.00 1500.00 960 2454 0.000 0.000 0.000 2.050 10000.000 0.000 -0.341
110 330.00 1500.00 943 2509 0.000 0.000 0.000 2.050 10000.000 0.000 -0.341
111 333.00 1500.00 984 2399 0.000 0.000 0.000 2.050 10000.000 0.000 -0.341
112 336.00 1500.00 941 2475 0.000 0.000 0.000 2.050 10000.000 0.000 -0.341
113 339.00 1500.00 907 2359 0.000 0.000 0.000 2.050 10000.000 0.000 -0.341
114 342.00 1500.00 964 2460 0.000 0.000 0.000 2.050 10000.000 0.000 -0.341
115 345.00 1500.00 944 2381 0.000 0.000 0.000 2.050 10000.000 0.000 -0.341
116 348.00 1500.00 950 2440 0.000 0.000 0.000 2.050 10000.000 0.000 -0.341
117 351.00 1500.00 866 2316 0.000 0.000 0.000 2.050 10000.000 0.000 -0.341
118 354.00 1500.00 986 2459 0.000 0.000 0.000 2.050 10000.000 0.000 -0.341
119 357.00 1500.00 921 2464 0.000 0.000 0.000 2.050 10000.000 0.000 -0.341
120 360.00 1500.00 919 2347 0.000 0.000 0.000 2.050 10000.000 0.000 -0.341
121 363.00 1500.00 964 2410 0.000 0.000 0.000 2.050 10000.000 0.000 -0.341
122 366.00 1500.00 1010 2466 0.000 0.000 0.000 2.050 10000.000 0.000 -0.341
123 369.00 1500.00 939 2385 0.000 0.000 0.000 2.050 10000.000 0.000 -0.341
124 372.00 1500.00 990 2456 0.000 0.000 0.000 2.050 10000.000 0.000 -0.341
125 375.00 1500.00 931 2402 0.000 0.000 0.000 2.050 10000.000 0.000 -0.341
126 378.00 1500.00 993 2449 0.000 0.000 0.000 2.050 10000.000 0.000 -0.341
127 381.00 1500.00 964 2461 0.000 0.000 0.000 2.050 10000.000 0.000 -0.341
128 384.00 1500.00 958 2444 0.000 0.000 0.000 2.050 10000.000 0.000 -0.341
129 387.00 1500.00 925 2318 0.000 0.000 0.000 2.050 10000.000 0.000 -0.341
130 390.00 1500.00 962 2441 0.000 0.000 0.000 2.050 10000.000 0.000 -0.341
131 393.00 1500.00 945 2426 0.000 0.000 0.000 2.050 10000.000 0.000 -0.341
132 396.00 1500.00 988 2445 0.000 0.000 0.000 2.050 10000.000 0.000 -0.341
133 399.00 1500.00 964 2401 0.000 0.000 0.000 2.050 10000.000 0.000 -0.341
134 402.00 1500.00 900 2511 0.000 0.000 0.000 2.050 10000.000 0.000 -0.341
