# BinNR microsec tot-time (s)  O-Beam AUX Ampl_1(V) f_1(Hz) phase_1(deg) Ampl_2(V) f_2(Hz) phase_2(deg) chi(pos)
0 0.00 1500.00 490 1249 0.000 0.000 0.000 2.050 10000.000 0.000 0.000
1 3.00 1500.00 912 2481 0.000 0.000 0.000 2.050 10000.000 0.000 0.000
2 6.00 1500.00 936 2395 0.000 0.000 0.000 2.050 10000.000 0.000 0.000
3 9.00 1500.00 925 2457 0.000 0.000 0.000 2.050 10000.000 0.000 0.000
4 12.00 1500.00 927 2430 0.000 0.000 0.000 2.050 10000.000 0.000 0.000
5 15.00 1500.00 920 2424 0.000 0.000 0.000 2.050 10000.000 0.000 0.000
6 18.00 1500.00 955 2469 0.000 0.000 0.000 2.050 10000.000 0.000 0.000
7 21.00 1500.00 974 2475 0.000 0.000 0.000 2.050 10000.000 0.000 0.000
8 24.00 1500.00 963 2389 0.000 0.000 0.000 2.050 10000.000 0.000 0.000
9 27.00 1500.00 932 2376 0.000 0.000 0.000 2.050 10000.000 0.000 0.000
10 30.00 1500.00 931 2438 0.000 0.000 0.000 2.050 10000.000 0.000 0.000
11 33.00 1500.00 918 2448 0.000 0.000 0.000 2.050 10000.000 0.000 0.000
12 36.00 1500.00 966 2388 0.000 0.000 0.000 2.050 10000.000 0.000 0.000
13 39.00 1500.00 976 2416 0.000 0.000 0.000 2.050 10000.000 0.000 0.000
14 42.00 1500.00 952 2423 0.000 0.000 0.000 2.050 10000.000 0.000 0.000
15 45.00 1500.00 927 2376 0.000 0.000 0.000 2.050 10000.000 0.000 0.000
16 48.00 1500.00 925 2400 0.000 0.000 0.000 2.050 10000.000 0.000 0.000
17 51.00 1500.00 952 2470 0.000 0.000 0.000 2.050 10000.000 0.000 0.000
18 54.00 1500.00 960 2417 0.000 0.000 0.000 2.050 10000.000 0.000 0.000
19 57.00 1500.00 940 2405 0.000 0.000 0.000 2.050 10000.000 0.000 0.000
20 60.00 1500.00 967 2454 0.000 0.000 0.000 2.050 10000.000 0.000 0.000
21 63.00 1500.00 932 2378 0.000 0.000 0.000 2.050 10000.000 0.000 0.000
22 66.00 1500.00 936 2497 0.000 0.000 0.000 2.050 10000.000 0.000 0.000
23 69.00 1500.00 900 2342 0.000 0.000 0.000 2.050 10000.000 0.000 0.000
24 72.00 1500.00 959 2435 0.000 0.000 0.000 2.050 10000.000 0.000 0.000
25 75.00 1500.00 939 2393 0.000 0.000 0.000 2.050 10000.000 0.000 0.000
26 78.00 1500.00 957 2409 0.000 0.000 0.000 2.050 10000.000 0.000 0.000
27 81.00 1500.00 907 2383 0.000 0.000 0.000 2.050 10000.000 0.000 0.000
28 84.00 1500.00 968 2369 0.000 0.000 0.000 2.050 10000.000 0.000 0.000
29 87.00 1500.00 984 2355 0.000 0.000 0.000 2.050 10000.000 0.000 0.000
30 90.00 1500.00 939 2361 0.000 0.000 0.000 2.050 10000.000 0.000 0.000
31 93.00 1500.00 924 2297 0.000 0.000 0.000 2.050 10000.000 0.000 0.000
32 96.00 1500.00 975 2513 0.000 0.000 0.000 2.050 10000.000 0.000 0.000
33 99.00 1500.00 911 2412 0.000 0.000 0.000 2.050 10000.000 0.000 0.000
34 102.00 1500.00 921 2490 0.000 0.000 0.000 2.050 10000.000 0.000 0.000
35 105.00 1500.00 951 2376 0.000 0.000 0.000 2.050 10000.000 0.000 0.000
36 108.00 1500.00 949 2432 0.000 0.000 0.000 2.050 10000.000 0.000 0.000
37 111.00 1500.00 960 2373 0.000 0.000 0.000 2.050 10000.000 0.000 0.000
38 114.00 1500.00 970 2392 0.000 0.000 0.000 2.050 10000.000 0.000 0.000
39 117.00 1500.00 956 2445 0.000 0.000 0.000 2.050 10000.000 0.000 0.000
40 120.00 1500.00 959 2439 0.000 0.000 0.000 2.050 10000.000 0.000 0.000
41 123.00 1500.00 942 2461 0.000 0.000 0.000 2.050 10000.000 0.000 0.000
42 126.00 1500.00 1015 2432 0.000 0.000 0.000 2.050 10000.000 0.000 0.000
43 129.00 1500.00 935 2391 0.000 0.000 0.000 2.050 10000.000 0.000 0.000
44 132.00 1500.00 922 2500 0.000 0.000 0.000 2.050 10000.000 0.000 0.000
45 135.00 1500.00 903 2437 0.000 0.000 0.000 2.050 10000.000 0.000 0.000
46 138.00 1500.00 900 2440 0.000 0.000 0.000 2.050 10000.000 0.000 0.000
47 141.00 1500.00 924 2379 0.000 0.000 0.000 2.050 10000.000 0.000 0.000
48 144.00 1500.00 985 2373 0.000 0.000 0.000 2.050 10000.000 0.000 0.000
49 147.00 1500.00 923 2418 0.000 0.000 0.000 2.050 10000.000 0.000 0.000
50 150.00 1500.00 910 2489 0.000 0.000 0.000 2.050 10000.000 0.000 0.000
51 153.00 1500.00 927 2435 0.000 0.000 0.000 2.050 10000.000 0.000 0.000
52 156.00 1500.00 936 2386 0.000 0.000 0.000 2.050 10000.000 0.000 0.000
53 159.00 1500.00 893 2386 0.000 0.000 0.000 2.050 10000.000 0.000 0.000
54 162.00 1500.00 957 2416 0.000 0.000 0.000 2.050 10000.000 0.000 0.000
55 165.00 1500.00 884 2417 0.000 0.000 0.000 2.050 10000.000 0.000 0.000
56 168.00 1500.00 960 2424 0.000 0.000 0.000 2.050 10000.000 0.000 0.000
57 171.00 1500.00 915 2284 0.000 0.000 0.000 2.050 10000.000 0.000 0.000
58 174.00 1500.00 1008 2470 0.000 0.000 0.000 2.050 10000.000 0.000 0.000
59 177.00 1500.00 905 2424 0.000 0.000 0.000 2.050 10000.000 0.000 0.000
60 180.00 1500.00 986 2468 0.000 0.000 0.000 2.050 10000.000 0.000 0.000
61 183.00 1500.00 966 2385 0.000 0.000 0.000 2.050 10000.000 0.000 0.000
62 186.00 1500.00 934 2406 0.000 0.000 0.000 2.050 10000.000 0.000 0.000
63 189.00 1500.00 888 2356 0.000 0.000 0.000 2.050 10000.000 0.000 0.000
64 192.00 1500.00 879 2499 0.000 0.000 0.000 2.050 10000.000 0.000 0.000
65 195.00 1500.00 899 2340 0.000 0.000 0.000 2.050 10000.000 0.000 0.000
66 198.00 1500.00 955 2407 0.000 0.000 0.000 2.050 10000.000 0.000 0.000
67 201.00 1500.00 904 2331 0.000 0.000 0.000 2.050 10000.000 0.000 0.000
68 204.00 1500.00 975 2462 0.000 0.000 0.000 2.050 10000.000 0.000 0.000
69 207.00 1500.00 941 2378 0.000 0.000 0.000 2.050 10000.000 0.000 0.000
70 210.00 1500.00 1010 2405 0.000 0.000 0.000 2.050 10000.000 0.000 0.000
71 213.00 1500.00 982 2428 0.000 0.000 0.000 2.050 10000.000 0.000 0.000
72 216.00 1500.00 972 2486 0.000 0.000 0.000 2.050 10000.000 0.000 0.000
73 219.00 1500.00 969 2321 0.000 0.000 0.000 2.050 10000.000 0.000 0.000
74 222.00 1500.00 967 2436 0.000 0.000 0.000 2.050 10000.000 0.000 0.000
75 225.00 1500.00 926 2371 0.000 0.000 0.000 2.050 10000.000 0.000 0.000
76 228.00 1500.00 950 2344 0.000 0.000 0.000 2.050 10000.000 0.000 0.000
77 231.00 1500.00 905 2396 0.000 0.000 0.000 2.050 10000.000 0.000 0.000
78 234.00 1500.00 931 2446 0.000 0.000 0.000 2.050 10000.000 0.000 0.000
79 237.00 1500.00 940 2368 0.000 0.000 0.000 2.050 10000.000 0.000 0.000
80 240.00 1500.00 964 2385 0.000 0.000 0.000 2.050 10000.000 0.000 0.000
81 243.00 1500.00 918 2442 0.000 0.000 0.000 2.050 10000.000 0.000 0.000
82 246.00 1500.00 997 2503 0.000 0.000 0.000 2.050 10000.000 0.000 0.000
83 249.00 1500.00 956 2423 0.000 0.000 0.000 2.050 10000.000 0.000 0.000
84 252.00 1500.00 939 2357 0.000 0.000 0.000 2.050 10000.000 0.000 0.000
85 255.00 1500.00 954 2489 0.000 0.000 0.000 2.050 10000.000 0.000 0.000
86 258.00 1500.00 958 2472 0.000 0.000 0.000 2.050 10000.000 0.000 0.000
87 261.00 1500.00 899 2289 0.000 0.000 0.000 2.050 10000.000 0.000 0.000
88 264.00 1500.00 993 2479 0.000 0.000 0.000 2.050 10000.000 0.000 0.000
89 267.00 1500.00 969 2412 0.000 0.000 0.000 2.050 10000.000 0.000 0.000
90 270.00 1500.00 929 2408 0.000 0.000 0.000 2.050 10000.000 0.000 0.000
91 273.00 1500.00 963 2358 0.000 0.000 0.000 2.050 10000.000 0.000 0.000
92 276.00 1500.00 938 2426 0.000 0.000 0.000 2.050 10000.000 0.000 0.000
93 279.00 1500.00 946 2385 0.000 0.000 0.000 2.050 10000.000 0.000 0.000
94 282.00 1500.00 924 2469 0.000 0.000 0.000 2.050 10000.000 0.000 0.000
95 285.00 1500.00 973 2371 0.000 0.000 0.000 2.050 10000.000 0.000 0.000
96 288.00 1500.00 975 2410 0.000 0.000 0.000 2.050 10000.000 0.000 0.000
97 291.00 1500.00 906 2375 0.000 0.000 0.000 2.050 10000.000 0.000 0.000
98 294.00 1500.00 941 2433 0.000 0.000 0.000 2.050 10000.000 0.000 0.000
99 297.00 1500.00 937 2421 0.000 0.000 0.000 2.050 10000.000 0.000 0.000
100 300.00 1500.00 967 2400 0.000 0.000 0.000 2.050 10000.000 0.000 0.000
101 303.00 1500.00 929 2473 0.000 0.000 0.000 2.050 10000.000 0.000 0.000
102 306.00 1500.00 985 2402 0.000 0.000 0.000 2.050 10000.000 0.000 0.000
103 309.00 1500.00 867 2355 0.000 0.000 0.000 2.050 10000.000 0.000 0.000
104 312.00 1500.00 933 2393 0.000 0.000 0.000 2.050 10000.000 0.000 0.000
105 315.00 1500.00 964 2395 0.000 0.000 0.000 2.050 10000.000 0.000 0.000
106 318.00 1500.00 973 2372 0.000 0.000 0.000 2.050 10000.000 0.000 0.000
107 321.00 1500.00 992 2322 0.000 0.000 0.000 2.050 10000.000 0.000 0.000
108 324.00 1500.00 951 2363 0.000 0.000 0.000 2.050 10000.000 0.000 0.000
109 327.00 1500.00 951 2392 0.000 0.000 0.000 2.050 10000.000 0.000 0.000
110 330.00 1500.00 908 2359 0.000 0.000 0.000 2.050 10000.000 0.000 0.000
111 333.00 1500.00 941 2452 0.000 0.000 0.000 2.050 10000.000 0.000 0.000
112 336.00 1500.00 948 2507 0.000 0.000 0.000 2.050 10000.000 0.000 0.000
113 339.00 1500.00 877 2407 0.000 0.000 0.000 2.050 10000.000 0.000 0.000
114 342.00 1500.00 939 2468 0.000 0.000 0.000 2.050 10000.000 0.000 0.000
115 345.00 1500.00 923 2368 0.000 0.000 0.000 2.050 10000.000 0.000 0.000
116 348.00 1500.00 939 2467 0.000 0.000 0.000 2.050 10000.000 0.000 0.000
117 351.00 1500.00 903 2404 0.000 0.000 0.000 2.050 10000.000 0.000 0.000
118 354.00 1500.00 949 2484 0.000 0.000 0.000 2.050 10000.000 0.000 0.000
119 357.00 1500.00 936 2332 0.000 0.000 0.000 2.050 10000.000 0.000 0.000
120 360.00 1500.00 934 2399 0.000 0.000 0.000 2.050 10000.000 0.000 0.000
121 363.00 1500.00 931 2459 0.000 0.000 0.000 2.050 10000.000 0.000 0.000
122 366.00 1500.00 926 2384 0.000 0.000 0.000 2.050 10000.000 0.000 0.000
123 369.00 1500.00 920 2371 0.000 0.000 0.000 2.050 10000.000 0.000 0.000
124 372.00 1500.00 958 2476 0.000 0.000 0.000 2.050 10000.000 0.000 0.000
125 375.00 1500.00 1012 2442 0.000 0.000 0.000 2.050 10000.000 0.000 0.000
126 378.00 1500.00 927 2400 0.000 0.000 0.000 2.050 10000.000 0.000 0.000
127 381.00 1500.00 873 2375 0.000 0.000 0.000 2.050 10000.000 0.000 0.000
128 384.00 1500.00 937 2417 0.000 0.000 0.000 2.050 10000.000 0.000 0.000
129 387.00 1500.00 925 2407 0.000 0.000 0.000 2.050 10000.000 0.000 0.000
130 390.00 1500.00 933 2381 0.000 0.000 0.000 2.050 10000.000 0.000 0.000
131 393.00 1500.00 932 2321 0.000 0.000 0.000 2.050 10000.000 0.000 0.000
132 396.00 1500.00 964 2473 0.000 0.000 0.000 2.050 10000.000 0.000 0.000
133 399.00 1500.00 879 2448 0.000 0.000 0.000 2.050 10000.000 0.000 0.000
134 402.00 1500.00 1036 2428 0.000 0.000 0.000 2.050 10000.000 0.000 0.000
