# BinNR microsec tot-time (s)  O-Beam AUX Ampl_1(V) f_1(Hz) phase_1(deg) Ampl_2(V) f_2(Hz) phase_2(deg) chi(pos)
0 0.00 1500.01 460 1210 0.000 0.000 0.000 2.050 10000.000 0.000 1.505
1 3.00 1500.01 874 2363 0.000 0.000 0.000 2.050 10000.000 0.000 1.505
2 6.00 1500.01 918 2389 0.000 0.000 0.000 2.050 10000.000 0.000 1.505
3 9.00 1500.01 880 2347 0.000 0.000 0.000 2.050 10000.000 0.000 1.505
4 12.00 1500.01 875 2292 0.000 0.000 0.000 2.050 10000.000 0.000 1.505
5 15.00 1500.01 958 2369 0.000 0.000 0.000 2.050 10000.000 0.000 1.505
6 18.00 1500.01 961 2473 0.000 0.000 0.000 2.050 10000.000 0.000 1.505
7 21.00 1500.01 957 2345 0.000 0.000 0.000 2.050 10000.000 0.000 1.505
8 24.00 1500.01 953 2328 0.000 0.000 0.000 2.050 10000.000 0.000 1.505
9 27.00 1500.01 954 2331 0.000 0.000 0.000 2.050 10000.000 0.000 1.505
10 30.00 1500.01 894 2403 0.000 0.000 0.000 2.050 10000.000 0.000 1.505
11 33.00 1500.01 973 2353 0.000 0.000 0.000 2.050 10000.000 0.000 1.505
12 36.00 1500.01 914 2407 0.000 0.000 0.000 2.050 10000.000 0.000 1.505
13 39.00 1500.01 946 2296 0.000 0.000 0.000 2.050 10000.000 0.000 1.505
14 42.00 1500.01 935 2377 0.000 0.000 0.000 2.050 10000.000 0.000 1.505
15 45.00 1500.01 928 2301 0.000 0.000 0.000 2.050 10000.000 0.000 1.505
16 48.00 1500.01 904 2385 0.000 0.000 0.000 2.050 10000.000 0.000 1.505
17 51.00 1500.01 891 2308 0.000 0.000 0.000 2.050 10000.000 0.000 1.505
18 54.00 1500.01 904 2261 0.000 0.000 0.000 2.050 10000.000 0.000 1.505
19 57.00 1500.01 904 2276 0.000 0.000 0.000 2.050 10000.000 0.000 1.505
20 60.00 1500.01 953 2342 0.000 0.000 0.000 2.050 10000.000 0.000 1.505
21 63.00 1500.01 908 2274 0.000 0.000 0.000 2.050 10000.000 0.000 1.505
22 66.00 1500.01 966 2364 0.000 0.000 0.000 2.050 10000.000 0.000 1.505
23 69.00 1500.01 928 2310 0.000 0.000 0.000 2.050 10000.000 0.000 1.505
24 72.00 1500.01 925 2394 0.000 0.000 0.000 2.050 10000.000 0.000 1.505
25 75.00 1500.01 939 2352 0.000 0.000 0.000 2.050 10000.000 0.000 1.505
26 78.00 1500.01 897 2342 0.000 0.000 0.000 2.050 10000.000 0.000 1.505
27 81.00 1500.01 920 2311 0.000 0.000 0.000 2.050 10000.000 0.000 1.505
28 84.00 1500.01 964 2317 0.000 0.000 0.000 2.050 10000.000 0.000 1.505
29 87.00 1500.01 910 2343 0.000 0.000 0.000 2.050 10000.000 0.000 1.505
30 90.00 1500.01 904 2339 0.000 0.000 0.000 2.050 10000.000 0.000 1.505
31 93.00 1500.01 974 2272 0.000 0.000 0.000 2.050 10000.000 0.000 1.505
32 96.00 1500.01 938 2436 0.000 0.000 0.000 2.050 10000.000 0.000 1.505
33 99.00 1500.01 881 2268 0.000 0.000 0.000 2.050 10000.000 0.000 1.505
34 102.00 1500.01 934 2422 0.000 0.000 0.000 2.050 10000.000 0.000 1.505
35 105.00 1500.01 899 2280 0.000 0.000 0.000 2.050 10000.000 0.000 1.505
36 108.00 1500.01 950 2417 0.000 0.000 0.000 2.050 10000.000 0.000 1.505
37 111.00 1500.01 933 2439 0.000 0.000 0.000 2.050 10000.000 0.000 1.505
38 114.00 1500.01 910 2332 0.000 0.000 0.000 2.050 10000.000 0.000 1.505
39 117.00 1500.01 891 2384 0.000 0.000 0.000 2.050 10000.000 0.000 1.505
40 120.00 1500.01 885 2317 0.000 0.000 0.000 2.050 10000.000 0.000 1.505
41 123.00 1500.01 914 2359 0.000 0.000 0.000 2.050 10000.000 0.000 1.505
42 126.00 1500.01 883 2380 0.000 0.000 0.000 2.050 10000.000 0.000 1.505
43 129.00 1500.01 882 2365 0.000 0.000 0.000 2.050 10000.000 0.000 1.505
44 132.00 1500.01 865 2471 0.000 0.000 0.000 2.050 10000.000 0.000 1.505
45 135.00 1500.01 941 2260 0.000 0.000 0.000 2.050 10000.000 0.000 1.505
46 138.00 1500.01 943 2432 0.000 0.000 0.000 2.050 10000.000 0.000 1.505
47 141.00 1500.01 962 2273 0.000 0.000 0.000 2.050 10000.000 0.000 1.505
48 144.00 1500.01 883 2277 0.000 0.000 0.000 2.050 10000.000 0.000 1.505
49 147.00 1500.01 976 2334 0.000 0.000 0.000 2.050 10000.000 0.000 1.505
50 150.00 1500.01 913 2364 0.000 0.000 0.000 2.050 10000.000 0.000 1.505
51 153.00 1500.01 909 2314 0.000 0.000 0.000 2.050 10000.000 0.000 1.505
52 156.00 1500.01 898 2341 0.000 0.000 0.000 2.050 10000.000 0.000 1.505
53 159.00 1500.01 904 2331 0.000 0.000 0.000 2.050 10000.000 0.000 1.505
54 162.00 1500.01 939 2412 0.000 0.000 0.000 2.050 10000.000 0.000 1.505
55 165.00 1500.01 905 2265 0.000 0.000 0.000 2.050 10000.000 0.000 1.505
56 168.00 1500.01 920 2370 0.000 0.000 0.000 2.050 10000.000 0.000 1.505
57 171.00 1500.01 950 2236 0.000 0.000 0.000 2.050 10000.000 0.000 1.505
58 174.00 1500.01 1012 2413 0.000 0.000 0.000 2.050 10000.000 0.000 1.505
59 177.00 1500.01 858 2292 0.000 0.000 0.000 2.050 10000.000 0.000 1.505
60 180.00 1500.01 922 2371 0.000 0.000 0.000 2.050 10000.000 0.000 1.505
61 183.00 1500.01 881 2295 0.000 0.000 0.000 2.050 10000.000 0.000 1.505
62 186.00 1500.01 935 2318 0.000 0.000 0.000 2.050 10000.000 0.000 1.505
63 189.00 1500.01 924 2360 0.000 0.000 0.000 2.050 10000.000 0.000 1.505
64 192.00 1500.01 973 2365 0.000 0.000 0.000 2.050 10000.000 0.000 1.505
65 195.00 1500.01 936 2363 0.000 0.000 0.000 2.050 10000.000 0.000 1.505
66 198.00 1500.01 929 2387 0.000 0.000 0.000 2.050 10000.000 0.000 1.505
67 201.00 1500.01 898 2398 0.000 0.000 0.000 2.050 10000.000 0.000 1.505
68 204.00 1500.01 954 2347 0.000 0.000 0.000 2.050 10000.000 0.000 1.505
69 207.00 1500.01 927 2391 0.000 0.000 0.000 2.050 10000.000 0.000 1.505
70 210.00 1500.01 934 2415 0.000 0.000 0.000 2.050 10000.000 0.000 1.505
71 213.00 1500.01 931 2317 0.000 0.000 0.000 2.050 10000.000 0.000 1.505
72 216.00 1500.01 931 2378 0.000 0.000 0.000 2.050 10000.000 0.000 1.505
73 219.00 1500.01 901 2262 0.000 0.000 0.000 2.050 10000.000 0.000 1.505
74 222.00 1500.01 937 2237 0.000 0.000 0.000 2.050 10000.000 0.000 1.505
75 225.00 1500.01 932 2358 0.000 0.000 0.000 2.050 10000.000 0.000 1.505
76 228.00 1500.01 951 2401 0.000 0.000 0.000 2.050 10000.000 0.000 1.505
77 231.00 1500.01 863 2290 0.000 0.000 0.000 2.050 10000.000 0.000 1.505
78 234.00 1500.01 961 2450 0.000 0.000 0.000 2.050 10000.000 0.000 1.505
79 237.00 1500.01 931 2375 0.000 0.000 0.000 2.050 10000.000 0.000 1.505
80 240.00 1500.01 869 2410 0.000 0.000 0.000 2.050 10000.000 0.000 1.505
81 243.00 1500.01 918 2330 0.000 0.000 0.000 2.050 10000.000 0.000 1.505
82 246.00 1500.01 936 2368 0.000 0.000 0.000 2.050 10000.000 0.000 1.505
83 249.00 1500.01 996 2390 0.000 0.000 0.000 2.050 10000.000 0.000 1.505
84 252.00 1500.01 922 2339 0.000 0.000 0.000 2.050 10000.000 0.000 1.505
85 255.00 1500.01 942 2330 0.000 0.000 0.000 2.050 10000.000 0.000 1.505
86 258.00 1500.01 915 2331 0.000 0.000 0.000 2.050 10000.000 0.000 1.505
87 261.00 1500.01 941 2392 0.000 0.000 0.000 2.050 10000.000 0.000 1.505
88 264.00 1500.01 897 2375 0.000 0.000 0.000 2.050 10000.000 0.000 1.505
89 267.00 1500.01 906 2278 0.000 0.000 0.000 2.050 10000.000 0.000 1.505
90 270.00 1500.01 975 2312 0.000 0.000 0.000 2.050 10000.000 0.000 1.505
91 273.00 1500.01 853 2294 0.000 0.000 0.000 2.050 10000.000 0.000 1.505
92 276.00 1500.01 964 2382 0.000 0.000 0.000 2.050 10000.000 0.000 1.505
93 279.00 1500.01 896 2295 0.000 0.000 0.000 2.050 10000.000 0.000 1.505
94 282.00 1500.01 929 2364 0.000 0.000 0.000 2.050 10000.000 0.000 1.505
95 285.00 1500.01 922 2319 0.000 0.000 0.000 2.050 10000.000 0.000 1.505
96 288.00 1500.01 902 2325 0.000 0.000 0.000 2.050 10000.000 0.000 1.505
97 291.00 1500.01 906 2385 0.000 0.000 0.000 2.050 10000.000 0.000 1.505
98 294.00 1500.01 1008 2394 0.000 0.000 0.000 2.050 10000.000 0.000 1.505
99 297.00 1500.01 947 2301 0.000 0.000 0.000 2.050 10000.000 0.000 1.505
100 300.00 1500.01 941 2325 0.000 0.000 0.000 2.050 10000.000 0.000 1.505
101 303.00 1500.01 946 2303 0.000 0.000 0.000 2.050 10000.000 0.000 1.505
102 306.00 1500.01 920 2442 0.000 0.000 0.000 2.050 10000.000 0.000 1.505
103 309.00 1500.01 909 2244 0.000 0.000 0.000 2.050 10000.000 0.000 1.505
104 312.00 1500.01 872 2402 0.000 0.000 0.000 2.050 10000.000 0.000 1.505
105 315.00 1500.01 914 2298 0.000 0.000 0.000 2.050 10000.000 0.000 1.505
106 318.00 1500.01 904 2392 0.000 0.000 0.000 2.050 10000.000 0.000 1.505
107 321.00 1500.01 923 2422 0.000 0.000 0.000 2.050 10000.000 0.000 1.505
108 324.00 1500.01 912 2353 0.000 0.000 0.000 2.050 10000.000 0.000 1.505
109 327.00 1500.01 937 2308 0.000 0.000 0.000 2.050 10000.000 0.000 1.505
110 330.00 1500.01 901 2391 0.000 0.000 0.000 2.050 10000.000 0.000 1.505
111 333.00 1500.01 907 2385 0.000 0.000 0.000 2.050 10000.000 0.000 1.505
112 336.00 1500.01 923 2446 0.000 0.000 0.000 2.050 10000.000 0.000 1.505
113 339.00 1500.01 951 2392 0.000 0.000 0.000 2.050 10000.000 0.000 1.505
114 342.00 1500.01 951 2298 0.000 0.000 0.000 2.050 10000.000 0.000 1.505
115 345.00 1500.01 940 2397 0.000 0.000 0.000 2.050 10000.000 0.000 1.505
116 348.00 1500.01 968 2400 0.000 0.000 0.000 2.050 10000.000 0.000 1.505
117 351.00 1500.01 948 2449 0.000 0.000 0.000 2.050 10000.000 0.000 1.505
118 354.00 1500.01 948 2370 0.000 0.000 0.000 2.050 10000.000 0.000 1.505
119 357.00 1500.01 899 2270 0.000 0.000 0.000 2.050 10000.000 0.000 1.505
120 360.00 1500.01 913 2262 0.000 0.000 0.000 2.050 10000.000 0.000 1.505
121 363.00 1500.01 885 2388 0.000 0.000 0.000 2.050 10000.000 0.000 1.505
122 366.00 1500.01 929 2375 0.000 0.000 0.000 2.050 10000.000 0.000 1.505
123 369.00 1500.01 934 2310 0.000 0.000 0.000 2.050 10000.000 0.000 1.505
124 372.00 1500.01 919 2398 0.000 0.000 0.000 2.050 10000.000 0.000 1.505
125 375.00 1500.01 936 2342 0.000 0.000 0.000 2.050 10000.000 0.000 1.505
126 378.00 1500.01 916 2330 0.000 0.000 0.000 2.050 10000.000 0.000 1.505
127 381.00 1500.01 923 2320 0.000 0.000 0.000 2.050 10000.000 0.000 1.505
128 384.00 1500.01 944 2395 0.000 0.000 0.000 2.050 10000.000 0.000 1.505
129 387.00 1500.01 909 2349 0.000 0.000 0.000 2.050 10000.000 0.000 1.505
130 390.00 1500.01 954 2366 0.000 0.000 0.000 2.050 10000.000 0.000 1.505
131 393.00 1500.01 922 2317 0.000 0.000 0.000 2.050 10000.000 0.000 1.505
132 396.00 1500.01 969 2339 0.000 0.000 0.000 2.050 10000.000 0.000 1.505
133 399.00 1500.01 903 2437 0.000 0.000 0.000 2.050 10000.000 0.000 1.505
134 402.00 1500.01 921 2375 0.000 0.000 0.000 2.050 10000.000 0.000 1.505
