# BinNR microsec tot-time (s)  O-Beam AUX Ampl_1(V) f_1(Hz) phase_1(deg) Ampl_2(V) f_2(Hz) phase_2(deg) chi(pos)
0 0.00 1500.01 462 1174 0.000 0.000 0.000 2.050 10000.000 0.000 0.835
1 3.00 1500.01 865 2358 0.000 0.000 0.000 2.050 10000.000 0.000 0.835
2 6.00 1500.01 972 2463 0.000 0.000 0.000 2.050 10000.000 0.000 0.835
3 9.00 1500.01 920 2307 0.000 0.000 0.000 2.050 10000.000 0.000 0.835
4 12.00 1500.01 922 2363 0.000 0.000 0.000 2.050 10000.000 0.000 0.835
5 15.00 1500.01 958 2274 0.000 0.000 0.000 2.050 10000.000 0.000 0.835
6 18.00 1500.01 949 2384 0.000 0.000 0.000 2.050 10000.000 0.000 0.835
7 21.00 1500.01 919 2345 0.000 0.000 0.000 2.050 10000.000 0.000 0.835
8 24.00 1500.01 961 2429 0.000 0.000 0.000 2.050 10000.000 0.000 0.835
9 27.00 1500.01 913 2335 0.000 0.000 0.000 2.050 10000.000 0.000 0.835
10 30.00 1500.01 929 2421 0.000 0.000 0.000 2.050 10000.000 0.000 0.835
11 33.00 1500.01 964 2303 0.000 0.000 0.000 2.050 10000.000 0.000 0.835
12 36.00 1500.01 929 2427 0.000 0.000 0.000 2.050 10000.000 0.000 0.835
13 39.00 1500.01 883 2310 0.000 0.000 0.000 2.050 10000.000 0.000 0.835
14 42.00 1500.01 980 2409 0.000 0.000 0.000 2.050 10000.000 0.000 0.835
15 45.00 1500.01 905 2330 0.000 0.000 0.000 2.050 10000.000 0.000 0.835
16 48.00 1500.01 893 2337 0.000 0.000 0.000 2.050 10000.000 0.000 0.835
17 51.00 1500.01 904 2244 0.000 0.000 0.000 2.050 10000.000 0.000 0.835
18 54.00 1500.01 979 2457 0.000 0.000 0.000 2.050 10000.000 0.000 0.835
19 57.00 1500.01 921 2299 0.000 0.000 0.000 2.050 10000.000 0.000 0.835
20 60.00 1500.01 955 2375 0.000 0.000 0.000 2.050 10000.000 0.000 0.835
21 63.00 1500.01 926 2208 0.000 0.000 0.000 2.050 10000.000 0.000 0.835
22 66.00 1500.01 895 2396 0.000 0.000 0.000 2.050 10000.000 0.000 0.835
23 69.00 1500.01 914 2348 0.000 0.000 0.000 2.050 10000.000 0.000 0.835
24 72.00 1500.01 984 2329 0.000 0.000 0.000 2.050 10000.000 0.000 0.835
25 75.00 1500.01 962 2323 0.000 0.000 0.000 2.050 10000.000 0.000 0.835
26 78.00 1500.01 857 2432 0.000 0.000 0.000 2.050 10000.000 0.000 0.835
27 81.00 1500.01 927 2403 0.000 0.000 0.000 2.050 10000.000 0.000 0.835
28 84.00 1500.01 951 2437 0.000 0.000 0.000 2.050 10000.000 0.000 0.835
29 87.00 1500.01 905 2275 0.000 0.000 0.000 2.050 10000.000 0.000 0.835
30 90.00 1500.01 903 2362 0.000 0.000 0.000 2.050 10000.000 0.000 0.835
31 93.00 1500.01 1004 2319 0.000 0.000 0.000 2.050 10000.000 0.000 0.835
32 96.00 1500.01 1001 2306 0.000 0.000 0.000 2.050 10000.000 0.000 0.835
33 99.00 1500.01 944 2371 0.000 0.000 0.000 2.050 10000.000 0.000 0.835
34 102.00 1500.01 933 2427 0.000 0.000 0.000 2.050 10000.000 0.000 0.835
35 105.00 1500.01 933 2341 0.000 0.000 0.000 2.050 10000.000 0.000 0.835
36 108.00 1500.01 932 2354 0.000 0.000 0.000 2.050 10000.000 0.000 0.835
37 111.00 1500.01 905 2324 0.000 0.000 0.000 2.050 10000.000 0.000 0.835
38 114.00 1500.01 963 2367 0.000 0.000 0.000 2.050 10000.000 0.000 0.835
39 117.00 1500.01 881 2390 0.000 0.000 0.000 2.050 10000.000 0.000 0.835
40 120.00 1500.01 883 2343 0.000 0.000 0.000 2.050 10000.000 0.000 0.835
41 123.00 1500.01 926 2311 0.000 0.000 0.000 2.050 10000.000 0.000 0.835
42 126.00 1500.01 1010 2331 0.000 0.000 0.000 2.050 10000.000 0.000 0.835
43 129.00 1500.01 942 2325 0.000 0.000 0.000 2.050 10000.000 0.000 0.835
44 132.00 1500.01 916 2366 0.000 0.000 0.000 2.050 10000.000 0.000 0.835
45 135.00 1500.01 898 2424 0.000 0.000 0.000 2.050 10000.000 0.000 0.835
46 138.00 1500.01 889 2327 0.000 0.000 0.000 2.050 10000.000 0.000 0.835
47 141.00 1500.01 912 2404 0.000 0.000 0.000 2.050 10000.000 0.000 0.835
48 144.00 1500.01 954 2498 0.000 0.000 0.000 2.050 10000.000 0.000 0.835
49 147.00 1500.01 953 2267 0.000 0.000 0.000 2.050 10000.000 0.000 0.835
50 150.00 1500.01 999 2392 0.000 0.000 0.000 2.050 10000.000 0.000 0.835
51 153.00 1500.01 978 2322 0.000 0.000 0.000 2.050 10000.000 0.000 0.835
52 156.00 1500.01 977 2340 0.000 0.000 0.000 2.050 10000.000 0.000 0.835
53 159.00 1500.01 962 2355 0.000 0.000 0.000 2.050 10000.000 0.000 0.835
54 162.00 1500.01 911 2472 0.000 0.000 0.000 2.050 10000.000 0.000 0.835
55 165.00 1500.01 915 2351 0.000 0.000 0.000 2.050 10000.000 0.000 0.835
56 168.00 1500.01 1005 2289 0.000 0.000 0.000 2.050 10000.000 0.000 0.835
57 171.00 1500.01 910 2350 0.000 0.000 0.000 2.050 10000.000 0.000 0.835
58 174.00 1500.01 1028 2441 0.000 0.000 0.000 2.050 10000.000 0.000 0.835
59 177.00 1500.01 865 2424 0.000 0.000 0.000 2.050 10000.000 0.000 0.835
60 180.00 1500.01 899 2345 0.000 0.000 0.000 2.050 10000.000 0.000 0.835
61 183.00 1500.01 959 2300 0.000 0.000 0.000 2.050 10000.000 0.000 0.835
62 186.00 1500.01 922 2346 0.000 0.000 0.000 2.050 10000.000 0.000 0.835
63 189.00 1500.01 884 2317 0.000 0.000 0.000 2.050 10000.000 0.000 0.835
64 192.00 1500.01 989 2335 0.000 0.000 0.000 2.050 10000.000 0.000 0.835
65 195.00 1500.01 917 2360 0.000 0.000 0.000 2.050 10000.000 0.000 0.835
66 198.00 1500.01 933 2376 0.000 0.000 0.000 2.050 10000.000 0.000 0.835
67 201.00 1500.01 946 2381 0.000 0.000 0.000 2.050 10000.000 0.000 0.835
68 204.00 1500.01 947 2391 0.000 0.000 0.000 2.050 10000.000 0.000 0.835
69 207.00 1500.01 910 2355 0.000 0.000 0.000 2.050 10000.000 0.000 0.835
70 210.00 1500.01 943 2446 0.000 0.000 0.000 2.050 10000.000 0.000 0.835
71 213.00 1500.01 949 2442 0.000 0.000 0.000 2.050 10000.000 0.000 0.835
72 216.00 1500.01 894 2413 0.000 0.000 0.000 2.050 10000.000 0.000 0.835
73 219.00 1500.01 873 2451 0.000 0.000 0.000 2.050 10000.000 0.000 0.835
74 222.00 1500.01 904 2460 0.000 0.000 0.000 2.050 10000.000 0.000 0.835
75 225.00 1500.01 908 2377 0.000 0.000 0.000 2.050 10000.000 0.000 0.835
76 228.00 1500.01 897 2412 0.000 0.000 0.000 2.050 10000.000 0.000 0.835
77 231.00 1500.01 972 2347 0.000 0.000 0.000 2.050 10000.000 0.000 0.835
78 234.00 1500.01 949 2410 0.000 0.000 0.000 2.050 10000.000 0.000 0.835
79 237.00 1500.01 916 2362 0.000 0.000 0.000 2.050 10000.000 0.000 0.835
80 240.00 1500.01 943 2387 0.000 0.000 0.000 2.050 10000.000 0.000 0.835
81 243.00 1500.01 911 2401 0.000 0.000 0.000 2.050 10000.000 0.000 0.835
82 246.00 1500.01 909 2402 0.000 0.000 0.000 2.050 10000.000 0.000 0.835
83 249.00 1500.01 937 2359 0.000 0.000 0.000 2.050 10000.000 0.000 0.835
84 252.00 1500.01 982 2292 0.000 0.000 0.000 2.050 10000.000 0.000 0.835
85 255.00 1500.01 906 2370 0.000 0.000 0.000 2.050 10000.000 0.000 0.835
86 258.00 1500.01 1008 2432 0.000 0.000 0.000 2.050 10000.000 0.000 0.835
87 261.00 1500.01 876 2372 0.000 0.000 0.000 2.050 10000.000 0.000 0.835
88 264.00 1500.01 929 2332 0.000 0.000 0.000 2.050 10000.000 0.000 0.835
89 267.00 1500.01 903 2315 0.000 0.000 0.000 2.050 10000.000 0.000 0.835
90 270.00 1500.01 945 2331 0.000 0.000 0.000 2.050 10000.000 0.000 0.835
91 273.00 1500.01 929 2339 0.000 0.000 0.000 2.050 10000.000 0.000 0.835
92 276.00 1500.01 929 2396 0.000 0.000 0.000 2.050 10000.000 0.000 0.835
93 279.00 1500.01 877 2369 0.000 0.000 0.000 2.050 10000.000 0.000 0.835
94 282.00 1500.01 925 2344 0.000 0.000 0.000 2.050 10000.000 0.000 0.835
95 285.00 1500.01 930 2306 0.000 0.000 0.000 2.050 10000.000 0.000 0.835
96 288.00 1500.01 907 2391 0.000 0.000 0.000 2.050 10000.000 0.000 0.835
97 291.00 1500.01 940 2245 0.000 0.000 0.000 2.050 10000.000 0.000 0.835
98 294.00 1500.01 860 2450 0.000 0.000 0.000 2.050 10000.000 0.000 0.835
99 297.00 1500.01 917 2356 0.000 0.000 0.000 2.050 10000.000 0.000 0.835
100 300.00 1500.01 938 2304 0.000 0.000 0.000 2.050 10000.000 0.000 0.835
101 303.00 1500.01 887 2393 0.000 0.000 0.000 2.050 10000.000 0.000 0.835
102 306.00 1500.01 922 2420 0.000 0.000 0.000 2.050 10000.000 0.000 0.835
103 309.00 1500.01 911 2317 0.000 0.000 0.000 2.050 10000.000 0.000 0.835
104 312.00 1500.01 879 2372 0.000 0.000 0.000 2.050 10000.000 0.000 0.835
105 315.00 1500.01 953 2306 0.000 0.000 0.000 2.050 10000.000 0.000 0.835
106 318.00 1500.01 923 2513 0.000 0.000 0.000 2.050 10000.000 0.000 0.835
107 321.00 1500.01 927 2286 0.000 0.000 0.000 2.050 10000.000 0.000 0.835
108 324.00 1500.01 967 2353 0.000 0.000 0.000 2.050 10000.000 0.000 0.835
109 327.00 1500.01 877 2430 0.000 0.000 0.000 2.050 10000.000 0.000 0.835
110 330.00 1500.01 941 2379 0.000 0.000 0.000 2.050 10000.000 0.000 0.835
111 333.00 1500.01 934 2301 0.000 0.000 0.000 2.050 10000.000 0.000 0.835
112 336.00 1500.01 929 2418 0.000 0.000 0.000 2.050 10000.000 0.000 0.835
113 339.00 1500.01 895 2261 0.000 0.000 0.000 2.050 10000.000 0.000 0.835
114 342.00 1500.01 961 2318 0.000 0.000 0.000 2.050 10000.000 0.000 0.835
115 345.00 1500.01 913 2414 0.000 0.000 0.000 2.050 10000.000 0.000 0.835
116 348.00 1500.01 926 2396 0.000 0.000 0.000 2.050 10000.000 0.000 0.835
117 351.00 1500.01 896 2330 0.000 0.000 0.000 2.050 10000.000 0.000 0.835
118 354.00 1500.01 927 2468 0.000 0.000 0.000 2.050 10000.000 0.000 0.835
119 357.00 1500.01 887 2366 0.000 0.000 0.000 2.050 10000.000 0.000 0.835
120 360.00 1500.01 931 2478 0.000 0.000 0.000 2.050 10000.000 0.000 0.835
121 363.00 1500.01 962 2292 0.000 0.000 0.000 2.050 10000.000 0.000 0.835
122 366.00 1500.01 965 2522 0.000 0.000 0.000 2.050 10000.000 0.000 0.835
123 369.00 1500.01 925 2341 0.000 0.000 0.000 2.050 10000.000 0.000 0.835
124 372.00 1500.01 1004 2486 0.000 0.000 0.000 2.050 10000.000 0.000 0.835
125 375.00 1500.01 915 2343 0.000 0.000 0.000 2.050 10000.000 0.000 0.835
126 378.00 1500.01 915 2382 0.000 0.000 0.000 2.050 10000.000 0.000 0.835
127 381.00 1500.01 937 2364 0.000 0.000 0.000 2.050 10000.000 0.000 0.835
128 384.00 1500.01 936 2322 0.000 0.000 0.000 2.050 10000.000 0.000 0.835
129 387.00 1500.01 939 2337 0.000 0.000 0.000 2.050 10000.000 0.000 0.835
130 390.00 1500.01 907 2356 0.000 0.000 0.000 2.050 10000.000 0.000 0.835
131 393.00 1500.01 964 2401 0.000 0.000 0.000 2.050 10000.000 0.000 0.835
132 396.00 1500.01 1029 2316 0.000 0.000 0.000 2.050 10000.000 0.000 0.835
133 399.00 1500.01 907 2317 0.000 0.000 0.000 2.050 10000.000 0.000 0.835
134 402.00 1500.01 988 2411 0.000 0.000 0.000 2.050 10000.000 0.000 0.835
