# BinNR microsec tot-time (s)  O-Beam AUX Ampl(V) f(Hz) phase(deg) chi(pos)
0 0.00 1200.01 154 365 2.000 10000.000 0.000 0.286
1 3.00 1200.01 298 750 2.000 10000.000 0.000 0.286
2 6.00 1200.01 290 751 2.000 10000.000 0.000 0.286
3 9.00 1200.01 269 624 2.000 10000.000 0.000 0.286
4 12.00 1200.01 221 593 2.000 10000.000 0.000 0.286
5 15.00 1200.01 219 466 2.000 10000.000 0.000 0.286
6 18.00 1200.01 227 449 2.000 10000.000 0.000 0.286
7 21.00 1200.01 236 370 2.000 10000.000 0.000 0.286
8 24.00 1200.01 178 332 2.000 10000.000 0.000 0.286
9 27.00 1200.01 203 278 2.000 10000.000 0.000 0.286
10 30.00 1200.01 158 285 2.000 10000.000 0.000 0.286
11 33.00 1200.01 165 217 2.000 10000.000 0.000 0.286
12 36.00 1200.01 178 250 2.000 10000.000 0.000 0.286
13 39.00 1200.01 169 240 2.000 10000.000 0.000 0.286
14 42.00 1200.01 179 257 2.000 10000.000 0.000 0.286
15 45.00 1200.01 196 245 2.000 10000.000 0.000 0.286
16 48.00 1200.01 174 253 2.000 10000.000 0.000 0.286
17 51.00 1200.01 182 278 2.000 10000.000 0.000 0.286
18 54.00 1200.01 175 252 2.000 10000.000 0.000 0.286
19 57.00 1200.01 173 269 2.000 10000.000 0.000 0.286
20 60.00 1200.01 165 231 2.000 10000.000 0.000 0.286
21 63.00 1200.01 215 240 2.000 10000.000 0.000 0.286
22 66.00 1200.01 199 283 2.000 10000.000 0.000 0.286
23 69.00 1200.01 206 283 2.000 10000.000 0.000 0.286
24 72.00 1200.01 226 351 2.000 10000.000 0.000 0.286
25 75.00 1200.01 244 384 2.000 10000.000 0.000 0.286
26 78.00 1200.01 287 533 2.000 10000.000 0.000 0.286
27 81.00 1200.01 300 533 2.000 10000.000 0.000 0.286
28 84.00 1200.01 313 658 2.000 10000.000 0.000 0.286
29 87.00 1200.01 323 674 2.000 10000.000 0.000 0.286
30 90.00 1200.01 339 766 2.000 10000.000 0.000 0.286
31 93.00 1200.01 310 827 2.000 10000.000 0.000 0.286
32 96.00 1200.01 303 812 2.000 10000.000 0.000 0.286
33 99.00 1200.01 284 835 2.000 10000.000 0.000 0.286
34 102.00 1200.01 308 801 2.000 10000.000 0.000 0.286
35 105.00 1200.01 295 759 2.000 10000.000 0.000 0.286
36 108.00 1200.01 259 787 2.000 10000.000 0.000 0.286
37 111.00 1200.01 243 659 2.000 10000.000 0.000 0.286
38 114.00 1200.01 249 628 2.000 10000.000 0.000 0.286
39 117.00 1200.01 227 551 2.000 10000.000 0.000 0.286
40 120.00 1200.01 189 481 2.000 10000.000 0.000 0.286
41 123.00 1200.01 190 415 2.000 10000.000 0.000 0.286
42 126.00 1200.01 205 351 2.000 10000.000 0.000 0.286
43 129.00 1200.01 182 295 2.000 10000.000 0.000 0.286
44 132.00 1200.01 179 291 2.000 10000.000 0.000 0.286
45 135.00 1200.01 171 257 2.000 10000.000 0.000 0.286
46 138.00 1200.01 165 233 2.000 10000.000 0.000 0.286
47 141.00 1200.01 172 235 2.000 10000.000 0.000 0.286
48 144.00 1200.01 178 235 2.000 10000.000 0.000 0.286
49 147.00 1200.01 150 248 2.000 10000.000 0.000 0.286
50 150.00 1200.01 158 241 2.000 10000.000 0.000 0.286
51 153.00 1200.01 178 259 2.000 10000.000 0.000 0.286
52 156.00 1200.01 174 245 2.000 10000.000 0.000 0.286
53 159.00 1200.01 158 232 2.000 10000.000 0.000 0.286
54 162.00 1200.01 181 267 2.000 10000.000 0.000 0.286
55 165.00 1200.01 180 263 2.000 10000.000 0.000 0.286
56 168.00 1200.01 220 310 2.000 10000.000 0.000 0.286
57 171.00 1200.01 215 336 2.000 10000.000 0.000 0.286
58 174.00 1200.01 260 353 2.000 10000.000 0.000 0.286
59 177.00 1200.01 267 419 2.000 10000.000 0.000 0.286
60 180.00 1200.01 281 559 2.000 10000.000 0.000 0.286
61 183.00 1200.01 264 611 2.000 10000.000 0.000 0.286
62 186.00 1200.01 315 713 2.000 10000.000 0.000 0.286
63 189.00 1200.01 304 693 2.000 10000.000 0.000 0.286
64 192.00 1200.01 288 800 2.000 10000.000 0.000 0.286
65 195.00 1200.01 320 750 2.000 10000.000 0.000 0.286
66 198.00 1200.01 323 800 2.000 10000.000 0.000 0.286
67 201.00 1200.01 273 831 2.000 10000.000 0.000 0.286
68 204.00 1200.01 314 792 2.000 10000.000 0.000 0.286
69 207.00 1200.01 290 762 2.000 10000.000 0.000 0.286
70 210.00 1200.01 281 746 2.000 10000.000 0.000 0.286
71 213.00 1200.01 269 685 2.000 10000.000 0.000 0.286
72 216.00 1200.01 265 553 2.000 10000.000 0.000 0.286
73 219.00 1200.01 248 506 2.000 10000.000 0.000 0.286
74 222.00 1200.01 224 470 2.000 10000.000 0.000 0.286
75 225.00 1200.01 200 364 2.000 10000.000 0.000 0.286
76 228.00 1200.01 208 340 2.000 10000.000 0.000 0.286
77 231.00 1200.01 201 272 2.000 10000.000 0.000 0.286
78 234.00 1200.01 204 251 2.000 10000.000 0.000 0.286
79 237.00 1200.01 167 274 2.000 10000.000 0.000 0.286
80 240.00 1200.01 186 234 2.000 10000.000 0.000 0.286
81 243.00 1200.01 166 252 2.000 10000.000 0.000 0.286
82 246.00 1200.01 139 271 2.000 10000.000 0.000 0.286
83 249.00 1200.01 151 248 2.000 10000.000 0.000 0.286
84 252.00 1200.01 174 297 2.000 10000.000 0.000 0.286
85 255.00 1200.01 172 252 2.000 10000.000 0.000 0.286
86 258.00 1200.01 173 256 2.000 10000.000 0.000 0.286
87 261.00 1200.01 170 251 2.000 10000.000 0.000 0.286
88 264.00 1200.01 194 249 2.000 10000.000 0.000 0.286
89 267.00 1200.01 200 290 2.000 10000.000 0.000 0.286
90 270.00 1200.01 196 312 2.000 10000.000 0.000 0.286
91 273.00 1200.01 237 334 2.000 10000.000 0.000 0.286
92 276.00 1200.01 252 435 2.000 10000.000 0.000 0.286
93 279.00 1200.01 269 488 2.000 10000.000 0.000 0.286
94 282.00 1200.01 267 567 2.000 10000.000 0.000 0.286
95 285.00 1200.01 322 673 2.000 10000.000 0.000 0.286
96 288.00 1200.01 337 729 2.000 10000.000 0.000 0.286
97 291.00 1200.01 301 757 2.000 10000.000 0.000 0.286
98 294.00 1200.01 303 819 2.000 10000.000 0.000 0.286
99 297.00 1200.01 303 805 2.000 10000.000 0.000 0.286
100 300.00 1200.01 292 883 2.000 10000.000 0.000 0.286
101 303.00 1200.01 254 641 2.000 10000.000 0.000 0.286
