# BinNR microsec tot-time (s)  O-Beam AUX Ampl(V) f(Hz) phase(deg) chi(pos)
0 0.00 1500.02 130 337 1.520 10000.000 0.000 -1.329
1 3.00 1500.02 278 659 1.520 10000.000 0.000 -1.329
2 6.00 1500.02 272 655 1.520 10000.000 0.000 -1.329
3 9.00 1500.02 269 691 1.520 10000.000 0.000 -1.329
4 12.00 1500.02 278 704 1.520 10000.000 0.000 -1.329
5 15.00 1500.02 270 633 1.520 10000.000 0.000 -1.329
6 18.00 1500.02 295 704 1.520 10000.000 0.000 -1.329
7 21.00 1500.02 267 646 1.520 10000.000 0.000 -1.329
8 24.00 1500.02 325 614 1.520 10000.000 0.000 -1.329
9 27.00 1500.02 267 650 1.520 10000.000 0.000 -1.329
10 30.00 1500.02 280 671 1.520 10000.000 0.000 -1.329
11 33.00 1500.02 251 628 1.520 10000.000 0.000 -1.329
12 36.00 1500.02 254 690 1.520 10000.000 0.000 -1.329
13 39.00 1500.02 284 627 1.520 10000.000 0.000 -1.329
14 42.00 1500.02 277 685 1.520 10000.000 0.000 -1.329
15 45.00 1500.02 272 675 1.520 10000.000 0.000 -1.329
16 48.00 1500.02 272 671 1.520 10000.000 0.000 -1.329
17 51.00 1500.02 263 667 1.520 10000.000 0.000 -1.329
18 54.00 1500.02 271 669 1.520 10000.000 0.000 -1.329
19 57.00 1500.02 290 696 1.520 10000.000 0.000 -1.329
20 60.00 1500.02 287 683 1.520 10000.000 0.000 -1.329
21 63.00 1500.02 252 659 1.520 10000.000 0.000 -1.329
22 66.00 1500.02 271 656 1.520 10000.000 0.000 -1.329
23 69.00 1500.02 251 678 1.520 10000.000 0.000 -1.329
24 72.00 1500.02 250 640 1.520 10000.000 0.000 -1.329
25 75.00 1500.02 269 654 1.520 10000.000 0.000 -1.329
26 78.00 1500.02 249 658 1.520 10000.000 0.000 -1.329
27 81.00 1500.02 274 665 1.520 10000.000 0.000 -1.329
28 84.00 1500.02 321 670 1.520 10000.000 0.000 -1.329
29 87.00 1500.02 283 630 1.520 10000.000 0.000 -1.329
30 90.00 1500.02 294 686 1.520 10000.000 0.000 -1.329
31 93.00 1500.02 264 631 1.520 10000.000 0.000 -1.329
32 96.00 1500.02 272 664 1.520 10000.000 0.000 -1.329
33 99.00 1500.02 267 673 1.520 10000.000 0.000 -1.329
34 102.00 1500.02 260 659 1.520 10000.000 0.000 -1.329
35 105.00 1500.02 280 633 1.520 10000.000 0.000 -1.329
36 108.00 1500.02 261 717 1.520 10000.000 0.000 -1.329
37 111.00 1500.02 252 662 1.520 10000.000 0.000 -1.329
38 114.00 1500.02 288 649 1.520 10000.000 0.000 -1.329
39 117.00 1500.02 261 702 1.520 10000.000 0.000 -1.329
40 120.00 1500.02 275 630 1.520 10000.000 0.000 -1.329
41 123.00 1500.02 277 649 1.520 10000.000 0.000 -1.329
42 126.00 1500.02 308 708 1.520 10000.000 0.000 -1.329
43 129.00 1500.02 274 633 1.520 10000.000 0.000 -1.329
44 132.00 1500.02 273 664 1.520 10000.000 0.000 -1.329
45 135.00 1500.02 256 690 1.520 10000.000 0.000 -1.329
46 138.00 1500.02 287 689 1.520 10000.000 0.000 -1.329
47 141.00 1500.02 275 623 1.520 10000.000 0.000 -1.329
48 144.00 1500.02 304 693 1.520 10000.000 0.000 -1.329
49 147.00 1500.02 247 625 1.520 10000.000 0.000 -1.329
50 150.00 1500.02 298 654 1.520 10000.000 0.000 -1.329
51 153.00 1500.02 267 735 1.520 10000.000 0.000 -1.329
52 156.00 1500.02 283 767 1.520 10000.000 0.000 -1.329
53 159.00 1500.02 269 649 1.520 10000.000 0.000 -1.329
54 162.00 1500.02 258 648 1.520 10000.000 0.000 -1.329
55 165.00 1500.02 276 654 1.520 10000.000 0.000 -1.329
56 168.00 1500.02 295 692 1.520 10000.000 0.000 -1.329
57 171.00 1500.02 252 689 1.520 10000.000 0.000 -1.329
58 174.00 1500.02 266 616 1.520 10000.000 0.000 -1.329
59 177.00 1500.02 273 563 1.520 10000.000 0.000 -1.329
60 180.00 1500.02 266 666 1.520 10000.000 0.000 -1.329
61 183.00 1500.02 259 668 1.520 10000.000 0.000 -1.329
62 186.00 1500.02 261 719 1.520 10000.000 0.000 -1.329
63 189.00 1500.02 280 699 1.520 10000.000 0.000 -1.329
64 192.00 1500.02 248 662 1.520 10000.000 0.000 -1.329
65 195.00 1500.02 274 678 1.520 10000.000 0.000 -1.329
66 198.00 1500.02 274 699 1.520 10000.000 0.000 -1.329
67 201.00 1500.02 290 683 1.520 10000.000 0.000 -1.329
68 204.00 1500.02 270 660 1.520 10000.000 0.000 -1.329
69 207.00 1500.02 285 679 1.520 10000.000 0.000 -1.329
70 210.00 1500.02 288 642 1.520 10000.000 0.000 -1.329
71 213.00 1500.02 265 671 1.520 10000.000 0.000 -1.329
72 216.00 1500.02 284 638 1.520 10000.000 0.000 -1.329
73 219.00 1500.02 277 623 1.520 10000.000 0.000 -1.329
74 222.00 1500.02 270 687 1.520 10000.000 0.000 -1.329
75 225.00 1500.02 283 644 1.520 10000.000 0.000 -1.329
76 228.00 1500.02 278 684 1.520 10000.000 0.000 -1.329
77 231.00 1500.02 228 630 1.520 10000.000 0.000 -1.329
78 234.00 1500.02 266 676 1.520 10000.000 0.000 -1.329
79 237.00 1500.02 260 705 1.520 10000.000 0.000 -1.329
80 240.00 1500.02 273 683 1.520 10000.000 0.000 -1.329
81 243.00 1500.02 249 679 1.520 10000.000 0.000 -1.329
82 246.00 1500.02 294 613 1.520 10000.000 0.000 -1.329
83 249.00 1500.02 286 620 1.520 10000.000 0.000 -1.329
84 252.00 1500.02 249 679 1.520 10000.000 0.000 -1.329
85 255.00 1500.02 252 715 1.520 10000.000 0.000 -1.329
86 258.00 1500.02 280 644 1.520 10000.000 0.000 -1.329
87 261.00 1500.02 317 667 1.520 10000.000 0.000 -1.329
88 264.00 1500.02 288 698 1.520 10000.000 0.000 -1.329
89 267.00 1500.02 252 614 1.520 10000.000 0.000 -1.329
90 270.00 1500.02 290 629 1.520 10000.000 0.000 -1.329
91 273.00 1500.02 264 664 1.520 10000.000 0.000 -1.329
92 276.00 1500.02 287 651 1.520 10000.000 0.000 -1.329
93 279.00 1500.02 311 625 1.520 10000.000 0.000 -1.329
94 282.00 1500.02 244 678 1.520 10000.000 0.000 -1.329
95 285.00 1500.02 259 661 1.520 10000.000 0.000 -1.329
96 288.00 1500.02 276 690 1.520 10000.000 0.000 -1.329
97 291.00 1500.02 291 703 1.520 10000.000 0.000 -1.329
98 294.00 1500.02 272 702 1.520 10000.000 0.000 -1.329
99 297.00 1500.02 274 657 1.520 10000.000 0.000 -1.329
100 300.00 1500.02 286 693 1.520 10000.000 0.000 -1.329
101 303.00 1500.02 279 694 1.520 10000.000 0.000 -1.329
102 306.00 1500.02 251 694 1.520 10000.000 0.000 -1.329
103 309.00 1500.02 253 637 1.520 10000.000 0.000 -1.329
104 312.00 1500.02 281 637 1.520 10000.000 0.000 -1.329
105 315.00 1500.02 258 661 1.520 10000.000 0.000 -1.329
106 318.00 1500.02 278 675 1.520 10000.000 0.000 -1.329
107 321.00 1500.02 278 683 1.520 10000.000 0.000 -1.329
108 324.00 1500.02 291 656 1.520 10000.000 0.000 -1.329
109 327.00 1500.02 284 674 1.520 10000.000 0.000 -1.329
110 330.00 1500.02 257 709 1.520 10000.000 0.000 -1.329
111 333.00 1500.02 276 666 1.520 10000.000 0.000 -1.329
112 336.00 1500.02 270 690 1.520 10000.000 0.000 -1.329
113 339.00 1500.02 265 665 1.520 10000.000 0.000 -1.329
114 342.00 1500.02 259 655 1.520 10000.000 0.000 -1.329
115 345.00 1500.02 250 679 1.520 10000.000 0.000 -1.329
116 348.00 1500.02 263 688 1.520 10000.000 0.000 -1.329
117 351.00 1500.02 302 670 1.520 10000.000 0.000 -1.329
118 354.00 1500.02 287 649 1.520 10000.000 0.000 -1.329
119 357.00 1500.02 278 663 1.520 10000.000 0.000 -1.329
120 360.00 1500.02 290 608 1.520 10000.000 0.000 -1.329
121 363.00 1500.02 267 630 1.520 10000.000 0.000 -1.329
122 366.00 1500.02 319 718 1.520 10000.000 0.000 -1.329
123 369.00 1500.02 300 665 1.520 10000.000 0.000 -1.329
124 372.00 1500.02 267 651 1.520 10000.000 0.000 -1.329
125 375.00 1500.02 287 615 1.520 10000.000 0.000 -1.329
126 378.00 1500.02 278 668 1.520 10000.000 0.000 -1.329
127 381.00 1500.02 281 659 1.520 10000.000 0.000 -1.329
128 384.00 1500.02 267 717 1.520 10000.000 0.000 -1.329
129 387.00 1500.02 267 652 1.520 10000.000 0.000 -1.329
130 390.00 1500.02 271 676 1.520 10000.000 0.000 -1.329
131 393.00 1500.02 297 691 1.520 10000.000 0.000 -1.329
132 396.00 1500.02 239 680 1.520 10000.000 0.000 -1.329
133 399.00 1500.02 272 674 1.520 10000.000 0.000 -1.329
134 402.00 1500.02 273 669 1.520 10000.000 0.000 -1.329
135 405.00 1500.02 289 677 1.520 10000.000 0.000 -1.329
136 408.00 1500.02 295 654 1.520 10000.000 0.000 -1.329
137 411.00 1500.02 295 667 1.520 10000.000 0.000 -1.329
138 414.00 1500.02 258 669 1.520 10000.000 0.000 -1.329
139 417.00 1500.02 302 724 1.520 10000.000 0.000 -1.329
140 420.00 1500.02 278 697 1.520 10000.000 0.000 -1.329
141 423.00 1500.02 239 644 1.520 10000.000 0.000 -1.329
142 426.00 1500.02 279 666 1.520 10000.000 0.000 -1.329
143 429.00 1500.02 290 653 1.520 10000.000 0.000 -1.329
144 432.00 1500.02 278 667 1.520 10000.000 0.000 -1.329
