# BinNR microsec tot-time (s)  O-Beam AUX Ampl(V) f(Hz) phase(deg) chi(pos)
0 0.00 1500.03 82 146 1.520 10000.000 0.000 -1.000
1 3.00 1500.03 161 297 1.520 10000.000 0.000 -1.000
2 6.00 1500.03 158 271 1.520 10000.000 0.000 -1.000
3 9.00 1500.03 171 296 1.520 10000.000 0.000 -1.000
4 12.00 1500.03 192 259 1.520 10000.000 0.000 -1.000
5 15.00 1500.03 186 260 1.520 10000.000 0.000 -1.000
6 18.00 1500.03 184 279 1.520 10000.000 0.000 -1.000
7 21.00 1500.03 176 302 1.520 10000.000 0.000 -1.000
8 24.00 1500.03 188 296 1.520 10000.000 0.000 -1.000
9 27.00 1500.03 150 260 1.520 10000.000 0.000 -1.000
10 30.00 1500.03 146 232 1.520 10000.000 0.000 -1.000
11 33.00 1500.03 174 261 1.520 10000.000 0.000 -1.000
12 36.00 1500.03 160 277 1.520 10000.000 0.000 -1.000
13 39.00 1500.03 186 269 1.520 10000.000 0.000 -1.000
14 42.00 1500.03 178 269 1.520 10000.000 0.000 -1.000
15 45.00 1500.03 169 295 1.520 10000.000 0.000 -1.000
16 48.00 1500.03 194 280 1.520 10000.000 0.000 -1.000
17 51.00 1500.03 177 267 1.520 10000.000 0.000 -1.000
18 54.00 1500.03 177 270 1.520 10000.000 0.000 -1.000
19 57.00 1500.03 178 262 1.520 10000.000 0.000 -1.000
20 60.00 1500.03 185 278 1.520 10000.000 0.000 -1.000
21 63.00 1500.03 190 260 1.520 10000.000 0.000 -1.000
22 66.00 1500.03 189 266 1.520 10000.000 0.000 -1.000
23 69.00 1500.03 196 273 1.520 10000.000 0.000 -1.000
24 72.00 1500.03 190 256 1.520 10000.000 0.000 -1.000
25 75.00 1500.03 181 278 1.520 10000.000 0.000 -1.000
26 78.00 1500.03 181 281 1.520 10000.000 0.000 -1.000
27 81.00 1500.03 211 299 1.520 10000.000 0.000 -1.000
28 84.00 1500.03 187 266 1.520 10000.000 0.000 -1.000
29 87.00 1500.03 186 237 1.520 10000.000 0.000 -1.000
30 90.00 1500.03 178 256 1.520 10000.000 0.000 -1.000
31 93.00 1500.03 170 283 1.520 10000.000 0.000 -1.000
32 96.00 1500.03 179 274 1.520 10000.000 0.000 -1.000
33 99.00 1500.03 172 292 1.520 10000.000 0.000 -1.000
34 102.00 1500.03 168 311 1.520 10000.000 0.000 -1.000
35 105.00 1500.03 165 259 1.520 10000.000 0.000 -1.000
36 108.00 1500.03 162 263 1.520 10000.000 0.000 -1.000
37 111.00 1500.03 172 266 1.520 10000.000 0.000 -1.000
38 114.00 1500.03 165 283 1.520 10000.000 0.000 -1.000
39 117.00 1500.03 169 277 1.520 10000.000 0.000 -1.000
40 120.00 1500.03 191 268 1.520 10000.000 0.000 -1.000
41 123.00 1500.03 162 276 1.520 10000.000 0.000 -1.000
42 126.00 1500.03 198 291 1.520 10000.000 0.000 -1.000
43 129.00 1500.03 190 259 1.520 10000.000 0.000 -1.000
44 132.00 1500.03 161 270 1.520 10000.000 0.000 -1.000
45 135.00 1500.03 176 276 1.520 10000.000 0.000 -1.000
46 138.00 1500.03 190 277 1.520 10000.000 0.000 -1.000
47 141.00 1500.03 169 281 1.520 10000.000 0.000 -1.000
48 144.00 1500.03 214 276 1.520 10000.000 0.000 -1.000
49 147.00 1500.03 189 238 1.520 10000.000 0.000 -1.000
50 150.00 1500.03 197 281 1.520 10000.000 0.000 -1.000
51 153.00 1500.03 166 252 1.520 10000.000 0.000 -1.000
52 156.00 1500.03 162 295 1.520 10000.000 0.000 -1.000
53 159.00 1500.03 176 265 1.520 10000.000 0.000 -1.000
54 162.00 1500.03 174 281 1.520 10000.000 0.000 -1.000
55 165.00 1500.03 176 314 1.520 10000.000 0.000 -1.000
56 168.00 1500.03 164 251 1.520 10000.000 0.000 -1.000
57 171.00 1500.03 154 299 1.520 10000.000 0.000 -1.000
58 174.00 1500.03 175 248 1.520 10000.000 0.000 -1.000
59 177.00 1500.03 174 230 1.520 10000.000 0.000 -1.000
60 180.00 1500.03 165 267 1.520 10000.000 0.000 -1.000
61 183.00 1500.03 171 253 1.520 10000.000 0.000 -1.000
62 186.00 1500.03 174 292 1.520 10000.000 0.000 -1.000
63 189.00 1500.03 172 263 1.520 10000.000 0.000 -1.000
64 192.00 1500.03 176 285 1.520 10000.000 0.000 -1.000
65 195.00 1500.03 186 267 1.520 10000.000 0.000 -1.000
66 198.00 1500.03 186 280 1.520 10000.000 0.000 -1.000
67 201.00 1500.03 188 273 1.520 10000.000 0.000 -1.000
68 204.00 1500.03 161 285 1.520 10000.000 0.000 -1.000
69 207.00 1500.03 164 257 1.520 10000.000 0.000 -1.000
70 210.00 1500.03 204 282 1.520 10000.000 0.000 -1.000
71 213.00 1500.03 174 269 1.520 10000.000 0.000 -1.000
72 216.00 1500.03 183 274 1.520 10000.000 0.000 -1.000
73 219.00 1500.03 186 251 1.520 10000.000 0.000 -1.000
74 222.00 1500.03 200 250 1.520 10000.000 0.000 -1.000
75 225.00 1500.03 171 271 1.520 10000.000 0.000 -1.000
76 228.00 1500.03 179 251 1.520 10000.000 0.000 -1.000
77 231.00 1500.03 191 268 1.520 10000.000 0.000 -1.000
78 234.00 1500.03 178 287 1.520 10000.000 0.000 -1.000
79 237.00 1500.03 186 250 1.520 10000.000 0.000 -1.000
80 240.00 1500.03 173 267 1.520 10000.000 0.000 -1.000
81 243.00 1500.03 158 273 1.520 10000.000 0.000 -1.000
82 246.00 1500.03 201 292 1.520 10000.000 0.000 -1.000
83 249.00 1500.03 165 277 1.520 10000.000 0.000 -1.000
84 252.00 1500.03 177 300 1.520 10000.000 0.000 -1.000
85 255.00 1500.03 178 261 1.520 10000.000 0.000 -1.000
86 258.00 1500.03 169 284 1.520 10000.000 0.000 -1.000
87 261.00 1500.03 163 282 1.520 10000.000 0.000 -1.000
88 264.00 1500.03 181 266 1.520 10000.000 0.000 -1.000
89 267.00 1500.03 161 254 1.520 10000.000 0.000 -1.000
90 270.00 1500.03 179 297 1.520 10000.000 0.000 -1.000
91 273.00 1500.03 175 260 1.520 10000.000 0.000 -1.000
92 276.00 1500.03 149 273 1.520 10000.000 0.000 -1.000
93 279.00 1500.03 191 270 1.520 10000.000 0.000 -1.000
94 282.00 1500.03 175 274 1.520 10000.000 0.000 -1.000
95 285.00 1500.03 185 293 1.520 10000.000 0.000 -1.000
96 288.00 1500.03 188 292 1.520 10000.000 0.000 -1.000
97 291.00 1500.03 146 252 1.520 10000.000 0.000 -1.000
98 294.00 1500.03 176 275 1.520 10000.000 0.000 -1.000
99 297.00 1500.03 156 252 1.520 10000.000 0.000 -1.000
100 300.00 1500.03 177 259 1.520 10000.000 0.000 -1.000
101 303.00 1500.03 162 273 1.520 10000.000 0.000 -1.000
102 306.00 1500.03 185 261 1.520 10000.000 0.000 -1.000
103 309.00 1500.03 183 269 1.520 10000.000 0.000 -1.000
104 312.00 1500.03 201 284 1.520 10000.000 0.000 -1.000
105 315.00 1500.03 179 264 1.520 10000.000 0.000 -1.000
106 318.00 1500.03 179 290 1.520 10000.000 0.000 -1.000
107 321.00 1500.03 175 250 1.520 10000.000 0.000 -1.000
108 324.00 1500.03 164 285 1.520 10000.000 0.000 -1.000
109 327.00 1500.03 189 261 1.520 10000.000 0.000 -1.000
110 330.00 1500.03 182 277 1.520 10000.000 0.000 -1.000
111 333.00 1500.03 164 247 1.520 10000.000 0.000 -1.000
112 336.00 1500.03 158 282 1.520 10000.000 0.000 -1.000
113 339.00 1500.03 168 261 1.520 10000.000 0.000 -1.000
114 342.00 1500.03 169 297 1.520 10000.000 0.000 -1.000
115 345.00 1500.03 192 279 1.520 10000.000 0.000 -1.000
116 348.00 1500.03 187 283 1.520 10000.000 0.000 -1.000
117 351.00 1500.03 176 274 1.520 10000.000 0.000 -1.000
118 354.00 1500.03 180 274 1.520 10000.000 0.000 -1.000
119 357.00 1500.03 171 274 1.520 10000.000 0.000 -1.000
120 360.00 1500.03 193 306 1.520 10000.000 0.000 -1.000
121 363.00 1500.03 174 270 1.520 10000.000 0.000 -1.000
122 366.00 1500.03 167 289 1.520 10000.000 0.000 -1.000
123 369.00 1500.03 158 261 1.520 10000.000 0.000 -1.000
124 372.00 1500.03 181 290 1.520 10000.000 0.000 -1.000
125 375.00 1500.03 174 279 1.520 10000.000 0.000 -1.000
126 378.00 1500.03 191 252 1.520 10000.000 0.000 -1.000
127 381.00 1500.03 175 274 1.520 10000.000 0.000 -1.000
128 384.00 1500.03 189 264 1.520 10000.000 0.000 -1.000
129 387.00 1500.03 184 280 1.520 10000.000 0.000 -1.000
130 390.00 1500.03 183 266 1.520 10000.000 0.000 -1.000
131 393.00 1500.03 201 268 1.520 10000.000 0.000 -1.000
132 396.00 1500.03 181 255 1.520 10000.000 0.000 -1.000
133 399.00 1500.03 178 258 1.520 10000.000 0.000 -1.000
134 402.00 1500.03 190 330 1.520 10000.000 0.000 -1.000
135 405.00 1500.03 180 283 1.520 10000.000 0.000 -1.000
136 408.00 1500.03 201 262 1.520 10000.000 0.000 -1.000
137 411.00 1500.03 179 241 1.520 10000.000 0.000 -1.000
138 414.00 1500.03 159 263 1.520 10000.000 0.000 -1.000
139 417.00 1500.03 150 314 1.520 10000.000 0.000 -1.000
140 420.00 1500.03 207 294 1.520 10000.000 0.000 -1.000
141 423.00 1500.03 172 260 1.520 10000.000 0.000 -1.000
142 426.00 1500.03 181 261 1.520 10000.000 0.000 -1.000
143 429.00 1500.03 174 284 1.520 10000.000 0.000 -1.000
144 432.00 1500.03 169 310 1.520 10000.000 0.000 -1.000
