# BinNR microsec tot-time (s)  O-Beam AUX Ampl(V) f(Hz) phase(deg) chi(pos)
0 0.00 1500.00 145 557 1.520 10000.000 0.000 0.000
1 3.00 1500.00 317 1027 1.520 10000.000 0.000 0.000
2 6.00 1500.00 325 1054 1.520 10000.000 0.000 0.000
3 9.00 1500.00 324 1035 1.520 10000.000 0.000 0.000
4 12.00 1500.00 343 1076 1.520 10000.000 0.000 0.000
5 15.00 1500.00 340 1031 1.520 10000.000 0.000 0.000
6 18.00 1500.00 374 1012 1.520 10000.000 0.000 0.000
7 21.00 1500.00 342 1099 1.520 10000.000 0.000 0.000
8 24.00 1500.00 339 1085 1.520 10000.000 0.000 0.000
9 27.00 1500.00 360 1010 1.520 10000.000 0.000 0.000
10 30.00 1500.00 332 1044 1.520 10000.000 0.000 0.000
11 33.00 1500.00 349 1049 1.520 10000.000 0.000 0.000
12 36.00 1500.00 306 1046 1.520 10000.000 0.000 0.000
13 39.00 1500.00 326 1039 1.520 10000.000 0.000 0.000
14 42.00 1500.00 330 1034 1.520 10000.000 0.000 0.000
15 45.00 1500.00 307 1010 1.520 10000.000 0.000 0.000
16 48.00 1500.00 329 1050 1.520 10000.000 0.000 0.000
17 51.00 1500.00 317 1107 1.520 10000.000 0.000 0.000
18 54.00 1500.00 334 1057 1.520 10000.000 0.000 0.000
19 57.00 1500.00 328 1032 1.520 10000.000 0.000 0.000
20 60.00 1500.00 315 1058 1.520 10000.000 0.000 0.000
21 63.00 1500.00 337 980 1.520 10000.000 0.000 0.000
22 66.00 1500.00 375 1005 1.520 10000.000 0.000 0.000
23 69.00 1500.00 349 1060 1.520 10000.000 0.000 0.000
24 72.00 1500.00 329 1088 1.520 10000.000 0.000 0.000
25 75.00 1500.00 324 1007 1.520 10000.000 0.000 0.000
26 78.00 1500.00 323 1043 1.520 10000.000 0.000 0.000
27 81.00 1500.00 345 1044 1.520 10000.000 0.000 0.000
28 84.00 1500.00 321 1066 1.520 10000.000 0.000 0.000
29 87.00 1500.00 339 1064 1.520 10000.000 0.000 0.000
30 90.00 1500.00 316 1035 1.520 10000.000 0.000 0.000
31 93.00 1500.00 339 1013 1.520 10000.000 0.000 0.000
32 96.00 1500.00 325 1092 1.520 10000.000 0.000 0.000
33 99.00 1500.00 334 1021 1.520 10000.000 0.000 0.000
34 102.00 1500.00 347 1063 1.520 10000.000 0.000 0.000
35 105.00 1500.00 309 1002 1.520 10000.000 0.000 0.000
36 108.00 1500.00 343 1051 1.520 10000.000 0.000 0.000
37 111.00 1500.00 339 1016 1.520 10000.000 0.000 0.000
38 114.00 1500.00 307 1138 1.520 10000.000 0.000 0.000
39 117.00 1500.00 302 1038 1.520 10000.000 0.000 0.000
40 120.00 1500.00 314 1007 1.520 10000.000 0.000 0.000
41 123.00 1500.00 324 999 1.520 10000.000 0.000 0.000
42 126.00 1500.00 338 1111 1.520 10000.000 0.000 0.000
43 129.00 1500.00 298 1024 1.520 10000.000 0.000 0.000
44 132.00 1500.00 351 1091 1.520 10000.000 0.000 0.000
45 135.00 1500.00 300 1032 1.520 10000.000 0.000 0.000
46 138.00 1500.00 322 1051 1.520 10000.000 0.000 0.000
47 141.00 1500.00 349 1036 1.520 10000.000 0.000 0.000
48 144.00 1500.00 320 1022 1.520 10000.000 0.000 0.000
49 147.00 1500.00 354 997 1.520 10000.000 0.000 0.000
50 150.00 1500.00 330 1076 1.520 10000.000 0.000 0.000
51 153.00 1500.00 322 987 1.520 10000.000 0.000 0.000
52 156.00 1500.00 348 1065 1.520 10000.000 0.000 0.000
53 159.00 1500.00 318 1017 1.520 10000.000 0.000 0.000
54 162.00 1500.00 309 1066 1.520 10000.000 0.000 0.000
55 165.00 1500.00 307 1034 1.520 10000.000 0.000 0.000
56 168.00 1500.00 369 1103 1.520 10000.000 0.000 0.000
57 171.00 1500.00 351 998 1.520 10000.000 0.000 0.000
58 174.00 1500.00 327 1013 1.520 10000.000 0.000 0.000
59 177.00 1500.00 357 1114 1.520 10000.000 0.000 0.000
60 180.00 1500.00 345 1093 1.520 10000.000 0.000 0.000
61 183.00 1500.00 337 1033 1.520 10000.000 0.000 0.000
62 186.00 1500.00 332 1104 1.520 10000.000 0.000 0.000
63 189.00 1500.00 336 1021 1.520 10000.000 0.000 0.000
64 192.00 1500.00 358 1079 1.520 10000.000 0.000 0.000
65 195.00 1500.00 326 1029 1.520 10000.000 0.000 0.000
66 198.00 1500.00 337 1073 1.520 10000.000 0.000 0.000
67 201.00 1500.00 310 1071 1.520 10000.000 0.000 0.000
68 204.00 1500.00 347 1089 1.520 10000.000 0.000 0.000
69 207.00 1500.00 344 1035 1.520 10000.000 0.000 0.000
70 210.00 1500.00 329 1068 1.520 10000.000 0.000 0.000
71 213.00 1500.00 319 1047 1.520 10000.000 0.000 0.000
72 216.00 1500.00 326 1092 1.520 10000.000 0.000 0.000
73 219.00 1500.00 313 1030 1.520 10000.000 0.000 0.000
74 222.00 1500.00 313 1084 1.520 10000.000 0.000 0.000
75 225.00 1500.00 319 1051 1.520 10000.000 0.000 0.000
76 228.00 1500.00 309 1083 1.520 10000.000 0.000 0.000
77 231.00 1500.00 304 1129 1.520 10000.000 0.000 0.000
78 234.00 1500.00 328 1026 1.520 10000.000 0.000 0.000
79 237.00 1500.00 340 1026 1.520 10000.000 0.000 0.000
80 240.00 1500.00 354 1046 1.520 10000.000 0.000 0.000
81 243.00 1500.00 307 973 1.520 10000.000 0.000 0.000
82 246.00 1500.00 379 1084 1.520 10000.000 0.000 0.000
83 249.00 1500.00 301 1007 1.520 10000.000 0.000 0.000
84 252.00 1500.00 349 1027 1.520 10000.000 0.000 0.000
85 255.00 1500.00 369 1054 1.520 10000.000 0.000 0.000
86 258.00 1500.00 320 1052 1.520 10000.000 0.000 0.000
87 261.00 1500.00 324 1077 1.520 10000.000 0.000 0.000
88 264.00 1500.00 319 1049 1.520 10000.000 0.000 0.000
89 267.00 1500.00 326 1046 1.520 10000.000 0.000 0.000
90 270.00 1500.00 357 1044 1.520 10000.000 0.000 0.000
91 273.00 1500.00 334 1033 1.520 10000.000 0.000 0.000
92 276.00 1500.00 356 1076 1.520 10000.000 0.000 0.000
93 279.00 1500.00 329 1059 1.520 10000.000 0.000 0.000
94 282.00 1500.00 373 1073 1.520 10000.000 0.000 0.000
95 285.00 1500.00 326 1055 1.520 10000.000 0.000 0.000
96 288.00 1500.00 371 1063 1.520 10000.000 0.000 0.000
97 291.00 1500.00 339 1028 1.520 10000.000 0.000 0.000
98 294.00 1500.00 307 1048 1.520 10000.000 0.000 0.000
99 297.00 1500.00 319 1021 1.520 10000.000 0.000 0.000
100 300.00 1500.00 340 993 1.520 10000.000 0.000 0.000
101 303.00 1500.00 357 1053 1.520 10000.000 0.000 0.000
102 306.00 1500.00 358 1058 1.520 10000.000 0.000 0.000
103 309.00 1500.00 337 1089 1.520 10000.000 0.000 0.000
104 312.00 1500.00 331 1041 1.520 10000.000 0.000 0.000
105 315.00 1500.00 334 1042 1.520 10000.000 0.000 0.000
106 318.00 1500.00 337 1059 1.520 10000.000 0.000 0.000
107 321.00 1500.00 340 1017 1.520 10000.000 0.000 0.000
108 324.00 1500.00 337 1100 1.520 10000.000 0.000 0.000
109 327.00 1500.00 340 1104 1.520 10000.000 0.000 0.000
110 330.00 1500.00 340 1067 1.520 10000.000 0.000 0.000
111 333.00 1500.00 339 982 1.520 10000.000 0.000 0.000
112 336.00 1500.00 337 1061 1.520 10000.000 0.000 0.000
113 339.00 1500.00 319 1052 1.520 10000.000 0.000 0.000
114 342.00 1500.00 320 1061 1.520 10000.000 0.000 0.000
115 345.00 1500.00 298 1087 1.520 10000.000 0.000 0.000
116 348.00 1500.00 368 1106 1.520 10000.000 0.000 0.000
117 351.00 1500.00 309 1010 1.520 10000.000 0.000 0.000
118 354.00 1500.00 322 1046 1.520 10000.000 0.000 0.000
119 357.00 1500.00 353 1072 1.520 10000.000 0.000 0.000
120 360.00 1500.00 332 1103 1.520 10000.000 0.000 0.000
121 363.00 1500.00 337 1096 1.520 10000.000 0.000 0.000
122 366.00 1500.00 374 1038 1.520 10000.000 0.000 0.000
123 369.00 1500.00 332 1053 1.520 10000.000 0.000 0.000
124 372.00 1500.00 317 1017 1.520 10000.000 0.000 0.000
125 375.00 1500.00 321 1033 1.520 10000.000 0.000 0.000
126 378.00 1500.00 382 1064 1.520 10000.000 0.000 0.000
127 381.00 1500.00 330 1111 1.520 10000.000 0.000 0.000
128 384.00 1500.00 347 1086 1.520 10000.000 0.000 0.000
129 387.00 1500.00 334 1006 1.520 10000.000 0.000 0.000
130 390.00 1500.00 320 1038 1.520 10000.000 0.000 0.000
131 393.00 1500.00 320 986 1.520 10000.000 0.000 0.000
132 396.00 1500.00 310 1135 1.520 10000.000 0.000 0.000
133 399.00 1500.00 334 1056 1.520 10000.000 0.000 0.000
134 402.00 1500.00 344 1080 1.520 10000.000 0.000 0.000
135 405.00 1500.00 316 1008 1.520 10000.000 0.000 0.000
136 408.00 1500.00 357 1085 1.520 10000.000 0.000 0.000
137 411.00 1500.00 331 1040 1.520 10000.000 0.000 0.000
138 414.00 1500.00 319 1017 1.520 10000.000 0.000 0.000
139 417.00 1500.00 351 1007 1.520 10000.000 0.000 0.000
140 420.00 1500.00 318 1101 1.520 10000.000 0.000 0.000
141 423.00 1500.00 324 994 1.520 10000.000 0.000 0.000
142 426.00 1500.00 330 1006 1.520 10000.000 0.000 0.000
143 429.00 1500.00 314 1066 1.520 10000.000 0.000 0.000
144 432.00 1500.00 317 1076 1.520 10000.000 0.000 0.000
