# BinNR microsec tot-time (s)  O-Beam AUX Ampl(V) f(Hz) phase(deg) chi(pos)
0 0.00 1500.02 83 197 1.520 10000.000 0.000 -0.516
1 3.00 1500.02 187 378 1.520 10000.000 0.000 -0.516
2 6.00 1500.02 188 372 1.520 10000.000 0.000 -0.516
3 9.00 1500.02 172 384 1.520 10000.000 0.000 -0.516
4 12.00 1500.02 155 401 1.520 10000.000 0.000 -0.516
5 15.00 1500.02 188 407 1.520 10000.000 0.000 -0.516
6 18.00 1500.02 188 413 1.520 10000.000 0.000 -0.516
7 21.00 1500.02 160 376 1.520 10000.000 0.000 -0.516
8 24.00 1500.02 171 388 1.520 10000.000 0.000 -0.516
9 27.00 1500.02 212 364 1.520 10000.000 0.000 -0.516
10 30.00 1500.02 195 389 1.520 10000.000 0.000 -0.516
11 33.00 1500.02 198 392 1.520 10000.000 0.000 -0.516
12 36.00 1500.02 192 407 1.520 10000.000 0.000 -0.516
13 39.00 1500.02 187 379 1.520 10000.000 0.000 -0.516
14 42.00 1500.02 178 369 1.520 10000.000 0.000 -0.516
15 45.00 1500.02 182 401 1.520 10000.000 0.000 -0.516
16 48.00 1500.02 197 409 1.520 10000.000 0.000 -0.516
17 51.00 1500.02 173 397 1.520 10000.000 0.000 -0.516
18 54.00 1500.02 193 379 1.520 10000.000 0.000 -0.516
19 57.00 1500.02 159 405 1.520 10000.000 0.000 -0.516
20 60.00 1500.02 172 382 1.520 10000.000 0.000 -0.516
21 63.00 1500.02 161 392 1.520 10000.000 0.000 -0.516
22 66.00 1500.02 168 346 1.520 10000.000 0.000 -0.516
23 69.00 1500.02 186 409 1.520 10000.000 0.000 -0.516
24 72.00 1500.02 182 369 1.520 10000.000 0.000 -0.516
25 75.00 1500.02 160 367 1.520 10000.000 0.000 -0.516
26 78.00 1500.02 189 418 1.520 10000.000 0.000 -0.516
27 81.00 1500.02 208 357 1.520 10000.000 0.000 -0.516
28 84.00 1500.02 178 385 1.520 10000.000 0.000 -0.516
29 87.00 1500.02 186 346 1.520 10000.000 0.000 -0.516
30 90.00 1500.02 183 419 1.520 10000.000 0.000 -0.516
31 93.00 1500.02 177 359 1.520 10000.000 0.000 -0.516
32 96.00 1500.02 207 406 1.520 10000.000 0.000 -0.516
33 99.00 1500.02 171 399 1.520 10000.000 0.000 -0.516
34 102.00 1500.02 174 392 1.520 10000.000 0.000 -0.516
35 105.00 1500.02 183 394 1.520 10000.000 0.000 -0.516
36 108.00 1500.02 161 393 1.520 10000.000 0.000 -0.516
37 111.00 1500.02 177 394 1.520 10000.000 0.000 -0.516
38 114.00 1500.02 184 404 1.520 10000.000 0.000 -0.516
39 117.00 1500.02 197 379 1.520 10000.000 0.000 -0.516
40 120.00 1500.02 196 354 1.520 10000.000 0.000 -0.516
41 123.00 1500.02 194 395 1.520 10000.000 0.000 -0.516
42 126.00 1500.02 176 397 1.520 10000.000 0.000 -0.516
43 129.00 1500.02 213 383 1.520 10000.000 0.000 -0.516
44 132.00 1500.02 208 391 1.520 10000.000 0.000 -0.516
45 135.00 1500.02 176 387 1.520 10000.000 0.000 -0.516
46 138.00 1500.02 185 428 1.520 10000.000 0.000 -0.516
47 141.00 1500.02 191 362 1.520 10000.000 0.000 -0.516
48 144.00 1500.02 178 425 1.520 10000.000 0.000 -0.516
49 147.00 1500.02 164 390 1.520 10000.000 0.000 -0.516
50 150.00 1500.02 216 412 1.520 10000.000 0.000 -0.516
51 153.00 1500.02 189 374 1.520 10000.000 0.000 -0.516
52 156.00 1500.02 184 359 1.520 10000.000 0.000 -0.516
53 159.00 1500.02 192 373 1.520 10000.000 0.000 -0.516
54 162.00 1500.02 175 405 1.520 10000.000 0.000 -0.516
55 165.00 1500.02 183 386 1.520 10000.000 0.000 -0.516
56 168.00 1500.02 171 399 1.520 10000.000 0.000 -0.516
57 171.00 1500.02 153 399 1.520 10000.000 0.000 -0.516
58 174.00 1500.02 171 403 1.520 10000.000 0.000 -0.516
59 177.00 1500.02 166 373 1.520 10000.000 0.000 -0.516
60 180.00 1500.02 165 390 1.520 10000.000 0.000 -0.516
61 183.00 1500.02 175 418 1.520 10000.000 0.000 -0.516
62 186.00 1500.02 195 387 1.520 10000.000 0.000 -0.516
63 189.00 1500.02 200 381 1.520 10000.000 0.000 -0.516
64 192.00 1500.02 175 382 1.520 10000.000 0.000 -0.516
65 195.00 1500.02 173 392 1.520 10000.000 0.000 -0.516
66 198.00 1500.02 159 368 1.520 10000.000 0.000 -0.516
67 201.00 1500.02 199 387 1.520 10000.000 0.000 -0.516
68 204.00 1500.02 175 435 1.520 10000.000 0.000 -0.516
69 207.00 1500.02 182 376 1.520 10000.000 0.000 -0.516
70 210.00 1500.02 165 438 1.520 10000.000 0.000 -0.516
71 213.00 1500.02 177 379 1.520 10000.000 0.000 -0.516
72 216.00 1500.02 169 406 1.520 10000.000 0.000 -0.516
73 219.00 1500.02 179 385 1.520 10000.000 0.000 -0.516
74 222.00 1500.02 179 374 1.520 10000.000 0.000 -0.516
75 225.00 1500.02 189 377 1.520 10000.000 0.000 -0.516
76 228.00 1500.02 180 388 1.520 10000.000 0.000 -0.516
77 231.00 1500.02 183 390 1.520 10000.000 0.000 -0.516
78 234.00 1500.02 182 377 1.520 10000.000 0.000 -0.516
79 237.00 1500.02 193 405 1.520 10000.000 0.000 -0.516
80 240.00 1500.02 172 416 1.520 10000.000 0.000 -0.516
81 243.00 1500.02 156 396 1.520 10000.000 0.000 -0.516
82 246.00 1500.02 181 380 1.520 10000.000 0.000 -0.516
83 249.00 1500.02 165 377 1.520 10000.000 0.000 -0.516
84 252.00 1500.02 187 400 1.520 10000.000 0.000 -0.516
85 255.00 1500.02 168 368 1.520 10000.000 0.000 -0.516
86 258.00 1500.02 185 431 1.520 10000.000 0.000 -0.516
87 261.00 1500.02 194 400 1.520 10000.000 0.000 -0.516
88 264.00 1500.02 190 407 1.520 10000.000 0.000 -0.516
89 267.00 1500.02 185 399 1.520 10000.000 0.000 -0.516
90 270.00 1500.02 186 392 1.520 10000.000 0.000 -0.516
91 273.00 1500.02 169 423 1.520 10000.000 0.000 -0.516
92 276.00 1500.02 153 415 1.520 10000.000 0.000 -0.516
93 279.00 1500.02 181 371 1.520 10000.000 0.000 -0.516
94 282.00 1500.02 184 396 1.520 10000.000 0.000 -0.516
95 285.00 1500.02 170 395 1.520 10000.000 0.000 -0.516
96 288.00 1500.02 190 383 1.520 10000.000 0.000 -0.516
97 291.00 1500.02 174 377 1.520 10000.000 0.000 -0.516
98 294.00 1500.02 188 400 1.520 10000.000 0.000 -0.516
99 297.00 1500.02 179 378 1.520 10000.000 0.000 -0.516
100 300.00 1500.02 203 409 1.520 10000.000 0.000 -0.516
101 303.00 1500.02 162 385 1.520 10000.000 0.000 -0.516
102 306.00 1500.02 166 387 1.520 10000.000 0.000 -0.516
103 309.00 1500.02 188 390 1.520 10000.000 0.000 -0.516
104 312.00 1500.02 181 386 1.520 10000.000 0.000 -0.516
105 315.00 1500.02 193 409 1.520 10000.000 0.000 -0.516
106 318.00 1500.02 191 383 1.520 10000.000 0.000 -0.516
107 321.00 1500.02 169 375 1.520 10000.000 0.000 -0.516
108 324.00 1500.02 160 390 1.520 10000.000 0.000 -0.516
109 327.00 1500.02 152 364 1.520 10000.000 0.000 -0.516
110 330.00 1500.02 174 416 1.520 10000.000 0.000 -0.516
111 333.00 1500.02 173 409 1.520 10000.000 0.000 -0.516
112 336.00 1500.02 195 431 1.520 10000.000 0.000 -0.516
113 339.00 1500.02 184 395 1.520 10000.000 0.000 -0.516
114 342.00 1500.02 175 394 1.520 10000.000 0.000 -0.516
115 345.00 1500.02 168 398 1.520 10000.000 0.000 -0.516
116 348.00 1500.02 176 350 1.520 10000.000 0.000 -0.516
117 351.00 1500.02 185 364 1.520 10000.000 0.000 -0.516
118 354.00 1500.02 206 377 1.520 10000.000 0.000 -0.516
119 357.00 1500.02 177 389 1.520 10000.000 0.000 -0.516
120 360.00 1500.02 182 379 1.520 10000.000 0.000 -0.516
121 363.00 1500.02 174 405 1.520 10000.000 0.000 -0.516
122 366.00 1500.02 182 405 1.520 10000.000 0.000 -0.516
123 369.00 1500.02 178 436 1.520 10000.000 0.000 -0.516
124 372.00 1500.02 162 410 1.520 10000.000 0.000 -0.516
125 375.00 1500.02 164 393 1.520 10000.000 0.000 -0.516
126 378.00 1500.02 156 386 1.520 10000.000 0.000 -0.516
127 381.00 1500.02 186 404 1.520 10000.000 0.000 -0.516
128 384.00 1500.02 177 406 1.520 10000.000 0.000 -0.516
129 387.00 1500.02 176 365 1.520 10000.000 0.000 -0.516
130 390.00 1500.02 188 397 1.520 10000.000 0.000 -0.516
131 393.00 1500.02 178 398 1.520 10000.000 0.000 -0.516
132 396.00 1500.02 195 398 1.520 10000.000 0.000 -0.516
133 399.00 1500.02 158 362 1.520 10000.000 0.000 -0.516
134 402.00 1500.02 193 397 1.520 10000.000 0.000 -0.516
135 405.00 1500.02 195 354 1.520 10000.000 0.000 -0.516
136 408.00 1500.02 169 407 1.520 10000.000 0.000 -0.516
137 411.00 1500.02 179 407 1.520 10000.000 0.000 -0.516
138 414.00 1500.02 186 358 1.520 10000.000 0.000 -0.516
139 417.00 1500.02 197 423 1.520 10000.000 0.000 -0.516
140 420.00 1500.02 164 407 1.520 10000.000 0.000 -0.516
141 423.00 1500.02 144 400 1.520 10000.000 0.000 -0.516
142 426.00 1500.02 178 418 1.520 10000.000 0.000 -0.516
143 429.00 1500.02 176 337 1.520 10000.000 0.000 -0.516
144 432.00 1500.02 194 396 1.520 10000.000 0.000 -0.516
