# BinNR microsec tot-time (s)  O-Beam AUX Ampl(V) f(Hz) phase(deg) chi(pos)
0 0.00 1500.02 171 623 1.520 10000.000 0.000 0.330
1 3.00 1500.02 369 1123 1.520 10000.000 0.000 0.330
2 6.00 1500.02 370 1173 1.520 10000.000 0.000 0.330
3 9.00 1500.02 362 1095 1.520 10000.000 0.000 0.330
4 12.00 1500.02 365 1080 1.520 10000.000 0.000 0.330
5 15.00 1500.02 374 1123 1.520 10000.000 0.000 0.330
6 18.00 1500.02 378 1125 1.520 10000.000 0.000 0.330
7 21.00 1500.02 340 1146 1.520 10000.000 0.000 0.330
8 24.00 1500.02 380 1137 1.520 10000.000 0.000 0.330
9 27.00 1500.02 371 1111 1.520 10000.000 0.000 0.330
10 30.00 1500.02 401 1200 1.520 10000.000 0.000 0.330
11 33.00 1500.02 379 1141 1.520 10000.000 0.000 0.330
12 36.00 1500.02 384 1178 1.520 10000.000 0.000 0.330
13 39.00 1500.02 349 1135 1.520 10000.000 0.000 0.330
14 42.00 1500.02 373 1192 1.520 10000.000 0.000 0.330
15 45.00 1500.02 351 1110 1.520 10000.000 0.000 0.330
16 48.00 1500.02 408 1196 1.520 10000.000 0.000 0.330
17 51.00 1500.02 352 1146 1.520 10000.000 0.000 0.330
18 54.00 1500.02 399 1131 1.520 10000.000 0.000 0.330
19 57.00 1500.02 394 1120 1.520 10000.000 0.000 0.330
20 60.00 1500.02 386 1033 1.520 10000.000 0.000 0.330
21 63.00 1500.02 334 1055 1.520 10000.000 0.000 0.330
22 66.00 1500.02 351 1088 1.520 10000.000 0.000 0.330
23 69.00 1500.02 338 1078 1.520 10000.000 0.000 0.330
24 72.00 1500.02 386 1095 1.520 10000.000 0.000 0.330
25 75.00 1500.02 357 1158 1.520 10000.000 0.000 0.330
26 78.00 1500.02 372 1142 1.520 10000.000 0.000 0.330
27 81.00 1500.02 382 1091 1.520 10000.000 0.000 0.330
28 84.00 1500.02 386 1133 1.520 10000.000 0.000 0.330
29 87.00 1500.02 389 1160 1.520 10000.000 0.000 0.330
30 90.00 1500.02 359 1104 1.520 10000.000 0.000 0.330
31 93.00 1500.02 375 1127 1.520 10000.000 0.000 0.330
32 96.00 1500.02 374 1114 1.520 10000.000 0.000 0.330
33 99.00 1500.02 370 1141 1.520 10000.000 0.000 0.330
34 102.00 1500.02 386 1093 1.520 10000.000 0.000 0.330
35 105.00 1500.02 366 1152 1.520 10000.000 0.000 0.330
36 108.00 1500.02 346 1014 1.520 10000.000 0.000 0.330
37 111.00 1500.02 364 1096 1.520 10000.000 0.000 0.330
38 114.00 1500.02 375 1165 1.520 10000.000 0.000 0.330
39 117.00 1500.02 336 1092 1.520 10000.000 0.000 0.330
40 120.00 1500.02 396 1157 1.520 10000.000 0.000 0.330
41 123.00 1500.02 371 1151 1.520 10000.000 0.000 0.330
42 126.00 1500.02 346 1137 1.520 10000.000 0.000 0.330
43 129.00 1500.02 371 1130 1.520 10000.000 0.000 0.330
44 132.00 1500.02 361 1134 1.520 10000.000 0.000 0.330
45 135.00 1500.02 381 1143 1.520 10000.000 0.000 0.330
46 138.00 1500.02 376 1111 1.520 10000.000 0.000 0.330
47 141.00 1500.02 384 1126 1.520 10000.000 0.000 0.330
48 144.00 1500.02 393 1165 1.520 10000.000 0.000 0.330
49 147.00 1500.02 363 1118 1.520 10000.000 0.000 0.330
50 150.00 1500.02 360 1095 1.520 10000.000 0.000 0.330
51 153.00 1500.02 387 1137 1.520 10000.000 0.000 0.330
52 156.00 1500.02 403 1128 1.520 10000.000 0.000 0.330
53 159.00 1500.02 347 1155 1.520 10000.000 0.000 0.330
54 162.00 1500.02 347 1063 1.520 10000.000 0.000 0.330
55 165.00 1500.02 385 1146 1.520 10000.000 0.000 0.330
56 168.00 1500.02 382 1094 1.520 10000.000 0.000 0.330
57 171.00 1500.02 361 1110 1.520 10000.000 0.000 0.330
58 174.00 1500.02 355 1172 1.520 10000.000 0.000 0.330
59 177.00 1500.02 381 1135 1.520 10000.000 0.000 0.330
60 180.00 1500.02 377 1141 1.520 10000.000 0.000 0.330
61 183.00 1500.02 377 1095 1.520 10000.000 0.000 0.330
62 186.00 1500.02 377 1154 1.520 10000.000 0.000 0.330
63 189.00 1500.02 332 1177 1.520 10000.000 0.000 0.330
64 192.00 1500.02 383 1142 1.520 10000.000 0.000 0.330
65 195.00 1500.02 361 1178 1.520 10000.000 0.000 0.330
66 198.00 1500.02 392 1094 1.520 10000.000 0.000 0.330
67 201.00 1500.02 370 1154 1.520 10000.000 0.000 0.330
68 204.00 1500.02 405 1115 1.520 10000.000 0.000 0.330
69 207.00 1500.02 358 1116 1.520 10000.000 0.000 0.330
70 210.00 1500.02 383 1128 1.520 10000.000 0.000 0.330
71 213.00 1500.02 367 1082 1.520 10000.000 0.000 0.330
72 216.00 1500.02 375 1173 1.520 10000.000 0.000 0.330
73 219.00 1500.02 361 1090 1.520 10000.000 0.000 0.330
74 222.00 1500.02 404 1162 1.520 10000.000 0.000 0.330
75 225.00 1500.02 385 1142 1.520 10000.000 0.000 0.330
76 228.00 1500.02 410 1106 1.520 10000.000 0.000 0.330
77 231.00 1500.02 387 1099 1.520 10000.000 0.000 0.330
78 234.00 1500.02 386 1099 1.520 10000.000 0.000 0.330
79 237.00 1500.02 359 1184 1.520 10000.000 0.000 0.330
80 240.00 1500.02 371 1160 1.520 10000.000 0.000 0.330
81 243.00 1500.02 402 1128 1.520 10000.000 0.000 0.330
82 246.00 1500.02 366 1165 1.520 10000.000 0.000 0.330
83 249.00 1500.02 365 1129 1.520 10000.000 0.000 0.330
84 252.00 1500.02 373 1178 1.520 10000.000 0.000 0.330
85 255.00 1500.02 347 1105 1.520 10000.000 0.000 0.330
86 258.00 1500.02 327 1173 1.520 10000.000 0.000 0.330
87 261.00 1500.02 374 1174 1.520 10000.000 0.000 0.330
88 264.00 1500.02 369 1117 1.520 10000.000 0.000 0.330
89 267.00 1500.02 374 1092 1.520 10000.000 0.000 0.330
90 270.00 1500.02 377 1159 1.520 10000.000 0.000 0.330
91 273.00 1500.02 367 1161 1.520 10000.000 0.000 0.330
92 276.00 1500.02 365 1158 1.520 10000.000 0.000 0.330
93 279.00 1500.02 355 1134 1.520 10000.000 0.000 0.330
94 282.00 1500.02 384 1117 1.520 10000.000 0.000 0.330
95 285.00 1500.02 377 1087 1.520 10000.000 0.000 0.330
96 288.00 1500.02 357 1142 1.520 10000.000 0.000 0.330
97 291.00 1500.02 362 1087 1.520 10000.000 0.000 0.330
98 294.00 1500.02 423 1131 1.520 10000.000 0.000 0.330
99 297.00 1500.02 385 1145 1.520 10000.000 0.000 0.330
100 300.00 1500.02 367 1141 1.520 10000.000 0.000 0.330
101 303.00 1500.02 365 1132 1.520 10000.000 0.000 0.330
102 306.00 1500.02 351 1187 1.520 10000.000 0.000 0.330
103 309.00 1500.02 370 1141 1.520 10000.000 0.000 0.330
104 312.00 1500.02 371 1214 1.520 10000.000 0.000 0.330
105 315.00 1500.02 366 1127 1.520 10000.000 0.000 0.330
106 318.00 1500.02 409 1144 1.520 10000.000 0.000 0.330
107 321.00 1500.02 361 1131 1.520 10000.000 0.000 0.330
108 324.00 1500.02 401 1140 1.520 10000.000 0.000 0.330
109 327.00 1500.02 359 1122 1.520 10000.000 0.000 0.330
110 330.00 1500.02 391 1149 1.520 10000.000 0.000 0.330
111 333.00 1500.02 369 1123 1.520 10000.000 0.000 0.330
112 336.00 1500.02 353 1125 1.520 10000.000 0.000 0.330
113 339.00 1500.02 353 1123 1.520 10000.000 0.000 0.330
114 342.00 1500.02 370 1192 1.520 10000.000 0.000 0.330
115 345.00 1500.02 373 1098 1.520 10000.000 0.000 0.330
116 348.00 1500.02 396 1163 1.520 10000.000 0.000 0.330
117 351.00 1500.02 362 1127 1.520 10000.000 0.000 0.330
118 354.00 1500.02 369 1126 1.520 10000.000 0.000 0.330
119 357.00 1500.02 344 1107 1.520 10000.000 0.000 0.330
120 360.00 1500.02 397 1146 1.520 10000.000 0.000 0.330
121 363.00 1500.02 392 1106 1.520 10000.000 0.000 0.330
122 366.00 1500.02 363 1119 1.520 10000.000 0.000 0.330
123 369.00 1500.02 376 1149 1.520 10000.000 0.000 0.330
124 372.00 1500.02 378 1123 1.520 10000.000 0.000 0.330
125 375.00 1500.02 366 1111 1.520 10000.000 0.000 0.330
126 378.00 1500.02 408 1108 1.520 10000.000 0.000 0.330
127 381.00 1500.02 331 1143 1.520 10000.000 0.000 0.330
128 384.00 1500.02 380 1136 1.520 10000.000 0.000 0.330
129 387.00 1500.02 381 1140 1.520 10000.000 0.000 0.330
130 390.00 1500.02 382 1132 1.520 10000.000 0.000 0.330
131 393.00 1500.02 364 1117 1.520 10000.000 0.000 0.330
132 396.00 1500.02 390 1121 1.520 10000.000 0.000 0.330
133 399.00 1500.02 385 1103 1.520 10000.000 0.000 0.330
134 402.00 1500.02 392 1163 1.520 10000.000 0.000 0.330
135 405.00 1500.02 354 1117 1.520 10000.000 0.000 0.330
136 408.00 1500.02 385 1095 1.520 10000.000 0.000 0.330
137 411.00 1500.02 344 1097 1.520 10000.000 0.000 0.330
138 414.00 1500.02 398 1163 1.520 10000.000 0.000 0.330
139 417.00 1500.02 369 1133 1.520 10000.000 0.000 0.330
140 420.00 1500.02 371 1107 1.520 10000.000 0.000 0.330
141 423.00 1500.02 375 1125 1.520 10000.000 0.000 0.330
142 426.00 1500.02 393 1127 1.520 10000.000 0.000 0.330
143 429.00 1500.02 326 1110 1.520 10000.000 0.000 0.330
144 432.00 1500.02 352 1178 1.520 10000.000 0.000 0.330
