# BinNR microsec tot-time (s)  O-Beam AUX Ampl(V) f(Hz) phase(deg) chi(pos)
0 0.00 1200.00 62 128 2.000 10000.000 0.000 -0.516
1 3.00 1200.00 150 265 2.000 10000.000 0.000 -0.516
2 6.00 1200.00 125 259 2.000 10000.000 0.000 -0.516
3 9.00 1200.00 123 288 2.000 10000.000 0.000 -0.516
4 12.00 1200.00 143 316 2.000 10000.000 0.000 -0.516
5 15.00 1200.00 129 297 2.000 10000.000 0.000 -0.516
6 18.00 1200.00 140 280 2.000 10000.000 0.000 -0.516
7 21.00 1200.00 142 313 2.000 10000.000 0.000 -0.516
8 24.00 1200.00 136 302 2.000 10000.000 0.000 -0.516
9 27.00 1200.00 133 312 2.000 10000.000 0.000 -0.516
10 30.00 1200.00 135 307 2.000 10000.000 0.000 -0.516
11 33.00 1200.00 135 291 2.000 10000.000 0.000 -0.516
12 36.00 1200.00 141 299 2.000 10000.000 0.000 -0.516
13 39.00 1200.00 140 298 2.000 10000.000 0.000 -0.516
14 42.00 1200.00 141 285 2.000 10000.000 0.000 -0.516
15 45.00 1200.00 129 280 2.000 10000.000 0.000 -0.516
16 48.00 1200.00 121 292 2.000 10000.000 0.000 -0.516
17 51.00 1200.00 145 295 2.000 10000.000 0.000 -0.516
18 54.00 1200.00 121 280 2.000 10000.000 0.000 -0.516
19 57.00 1200.00 158 277 2.000 10000.000 0.000 -0.516
20 60.00 1200.00 149 316 2.000 10000.000 0.000 -0.516
21 63.00 1200.00 115 305 2.000 10000.000 0.000 -0.516
22 66.00 1200.00 144 309 2.000 10000.000 0.000 -0.516
23 69.00 1200.00 131 287 2.000 10000.000 0.000 -0.516
24 72.00 1200.00 141 314 2.000 10000.000 0.000 -0.516
25 75.00 1200.00 128 276 2.000 10000.000 0.000 -0.516
26 78.00 1200.00 144 302 2.000 10000.000 0.000 -0.516
27 81.00 1200.00 140 295 2.000 10000.000 0.000 -0.516
28 84.00 1200.00 146 300 2.000 10000.000 0.000 -0.516
29 87.00 1200.00 138 258 2.000 10000.000 0.000 -0.516
30 90.00 1200.00 141 296 2.000 10000.000 0.000 -0.516
31 93.00 1200.00 112 294 2.000 10000.000 0.000 -0.516
32 96.00 1200.00 134 294 2.000 10000.000 0.000 -0.516
33 99.00 1200.00 142 274 2.000 10000.000 0.000 -0.516
34 102.00 1200.00 139 287 2.000 10000.000 0.000 -0.516
35 105.00 1200.00 138 307 2.000 10000.000 0.000 -0.516
36 108.00 1200.00 147 294 2.000 10000.000 0.000 -0.516
37 111.00 1200.00 135 271 2.000 10000.000 0.000 -0.516
38 114.00 1200.00 141 278 2.000 10000.000 0.000 -0.516
39 117.00 1200.00 141 282 2.000 10000.000 0.000 -0.516
40 120.00 1200.00 143 290 2.000 10000.000 0.000 -0.516
41 123.00 1200.00 147 299 2.000 10000.000 0.000 -0.516
42 126.00 1200.00 118 287 2.000 10000.000 0.000 -0.516
43 129.00 1200.00 141 275 2.000 10000.000 0.000 -0.516
44 132.00 1200.00 139 270 2.000 10000.000 0.000 -0.516
45 135.00 1200.00 160 256 2.000 10000.000 0.000 -0.516
46 138.00 1200.00 129 234 2.000 10000.000 0.000 -0.516
47 141.00 1200.00 126 302 2.000 10000.000 0.000 -0.516
48 144.00 1200.00 152 293 2.000 10000.000 0.000 -0.516
49 147.00 1200.00 143 295 2.000 10000.000 0.000 -0.516
50 150.00 1200.00 152 278 2.000 10000.000 0.000 -0.516
51 153.00 1200.00 149 271 2.000 10000.000 0.000 -0.516
52 156.00 1200.00 133 322 2.000 10000.000 0.000 -0.516
53 159.00 1200.00 121 266 2.000 10000.000 0.000 -0.516
54 162.00 1200.00 137 280 2.000 10000.000 0.000 -0.516
55 165.00 1200.00 134 286 2.000 10000.000 0.000 -0.516
56 168.00 1200.00 142 291 2.000 10000.000 0.000 -0.516
57 171.00 1200.00 153 303 2.000 10000.000 0.000 -0.516
58 174.00 1200.00 147 278 2.000 10000.000 0.000 -0.516
59 177.00 1200.00 148 322 2.000 10000.000 0.000 -0.516
60 180.00 1200.00 147 321 2.000 10000.000 0.000 -0.516
61 183.00 1200.00 137 294 2.000 10000.000 0.000 -0.516
62 186.00 1200.00 155 263 2.000 10000.000 0.000 -0.516
63 189.00 1200.00 147 295 2.000 10000.000 0.000 -0.516
64 192.00 1200.00 126 325 2.000 10000.000 0.000 -0.516
65 195.00 1200.00 172 300 2.000 10000.000 0.000 -0.516
66 198.00 1200.00 130 313 2.000 10000.000 0.000 -0.516
67 201.00 1200.00 150 312 2.000 10000.000 0.000 -0.516
68 204.00 1200.00 130 306 2.000 10000.000 0.000 -0.516
69 207.00 1200.00 152 274 2.000 10000.000 0.000 -0.516
70 210.00 1200.00 135 304 2.000 10000.000 0.000 -0.516
71 213.00 1200.00 137 308 2.000 10000.000 0.000 -0.516
72 216.00 1200.00 136 289 2.000 10000.000 0.000 -0.516
73 219.00 1200.00 136 258 2.000 10000.000 0.000 -0.516
74 222.00 1200.00 132 311 2.000 10000.000 0.000 -0.516
75 225.00 1200.00 131 287 2.000 10000.000 0.000 -0.516
76 228.00 1200.00 148 297 2.000 10000.000 0.000 -0.516
77 231.00 1200.00 130 282 2.000 10000.000 0.000 -0.516
78 234.00 1200.00 149 295 2.000 10000.000 0.000 -0.516
79 237.00 1200.00 138 292 2.000 10000.000 0.000 -0.516
80 240.00 1200.00 155 306 2.000 10000.000 0.000 -0.516
81 243.00 1200.00 124 281 2.000 10000.000 0.000 -0.516
82 246.00 1200.00 155 290 2.000 10000.000 0.000 -0.516
83 249.00 1200.00 129 304 2.000 10000.000 0.000 -0.516
84 252.00 1200.00 130 298 2.000 10000.000 0.000 -0.516
85 255.00 1200.00 126 313 2.000 10000.000 0.000 -0.516
86 258.00 1200.00 150 313 2.000 10000.000 0.000 -0.516
87 261.00 1200.00 146 271 2.000 10000.000 0.000 -0.516
88 264.00 1200.00 135 294 2.000 10000.000 0.000 -0.516
89 267.00 1200.00 143 304 2.000 10000.000 0.000 -0.516
90 270.00 1200.00 147 299 2.000 10000.000 0.000 -0.516
91 273.00 1200.00 145 265 2.000 10000.000 0.000 -0.516
92 276.00 1200.00 122 277 2.000 10000.000 0.000 -0.516
93 279.00 1200.00 133 276 2.000 10000.000 0.000 -0.516
94 282.00 1200.00 131 285 2.000 10000.000 0.000 -0.516
95 285.00 1200.00 139 287 2.000 10000.000 0.000 -0.516
96 288.00 1200.00 136 318 2.000 10000.000 0.000 -0.516
97 291.00 1200.00 118 312 2.000 10000.000 0.000 -0.516
98 294.00 1200.00 164 306 2.000 10000.000 0.000 -0.516
99 297.00 1200.00 138 248 2.000 10000.000 0.000 -0.516
100 300.00 1200.00 154 306 2.000 10000.000 0.000 -0.516
101 303.00 1200.00 114 216 2.000 10000.000 0.000 -0.516
