# BinNR microsec tot-time (s)  O-Beam AUX Ampl(V) f(Hz) phase(deg) chi(pos)
0 0.00 1200.01 68 143 1.000 10000.000 0.000 0.901
1 3.00 1200.01 153 374 1.000 10000.000 0.000 0.901
2 6.00 1200.01 179 350 1.000 10000.000 0.000 0.901
3 9.00 1200.01 159 401 1.000 10000.000 0.000 0.901
4 12.00 1200.01 155 404 1.000 10000.000 0.000 0.901
5 15.00 1200.01 149 400 1.000 10000.000 0.000 0.901
6 18.00 1200.01 147 415 1.000 10000.000 0.000 0.901
7 21.00 1200.01 154 382 1.000 10000.000 0.000 0.901
8 24.00 1200.01 154 413 1.000 10000.000 0.000 0.901
9 27.00 1200.01 148 365 1.000 10000.000 0.000 0.901
10 30.00 1200.01 159 359 1.000 10000.000 0.000 0.901
11 33.00 1200.01 142 331 1.000 10000.000 0.000 0.901
12 36.00 1200.01 140 296 1.000 10000.000 0.000 0.901
13 39.00 1200.01 150 265 1.000 10000.000 0.000 0.901
14 42.00 1200.01 133 257 1.000 10000.000 0.000 0.901
15 45.00 1200.01 121 236 1.000 10000.000 0.000 0.901
16 48.00 1200.01 146 225 1.000 10000.000 0.000 0.901
17 51.00 1200.01 142 210 1.000 10000.000 0.000 0.901
18 54.00 1200.01 131 197 1.000 10000.000 0.000 0.901
19 57.00 1200.01 133 204 1.000 10000.000 0.000 0.901
20 60.00 1200.01 128 228 1.000 10000.000 0.000 0.901
21 63.00 1200.01 147 185 1.000 10000.000 0.000 0.901
22 66.00 1200.01 149 210 1.000 10000.000 0.000 0.901
23 69.00 1200.01 142 195 1.000 10000.000 0.000 0.901
24 72.00 1200.01 147 216 1.000 10000.000 0.000 0.901
25 75.00 1200.01 130 225 1.000 10000.000 0.000 0.901
26 78.00 1200.01 140 197 1.000 10000.000 0.000 0.901
27 81.00 1200.01 139 195 1.000 10000.000 0.000 0.901
28 84.00 1200.01 132 250 1.000 10000.000 0.000 0.901
29 87.00 1200.01 141 246 1.000 10000.000 0.000 0.901
30 90.00 1200.01 156 226 1.000 10000.000 0.000 0.901
31 93.00 1200.01 158 276 1.000 10000.000 0.000 0.901
32 96.00 1200.01 165 257 1.000 10000.000 0.000 0.901
33 99.00 1200.01 154 293 1.000 10000.000 0.000 0.901
34 102.00 1200.01 167 323 1.000 10000.000 0.000 0.901
35 105.00 1200.01 163 385 1.000 10000.000 0.000 0.901
36 108.00 1200.01 154 372 1.000 10000.000 0.000 0.901
37 111.00 1200.01 171 421 1.000 10000.000 0.000 0.901
38 114.00 1200.01 170 420 1.000 10000.000 0.000 0.901
39 117.00 1200.01 163 413 1.000 10000.000 0.000 0.901
40 120.00 1200.01 175 416 1.000 10000.000 0.000 0.901
41 123.00 1200.01 180 423 1.000 10000.000 0.000 0.901
42 126.00 1200.01 182 330 1.000 10000.000 0.000 0.901
43 129.00 1200.01 177 353 1.000 10000.000 0.000 0.901
44 132.00 1200.01 156 341 1.000 10000.000 0.000 0.901
45 135.00 1200.01 169 325 1.000 10000.000 0.000 0.901
46 138.00 1200.01 137 274 1.000 10000.000 0.000 0.901
47 141.00 1200.01 154 260 1.000 10000.000 0.000 0.901
48 144.00 1200.01 135 242 1.000 10000.000 0.000 0.901
49 147.00 1200.01 140 219 1.000 10000.000 0.000 0.901
50 150.00 1200.01 118 225 1.000 10000.000 0.000 0.901
51 153.00 1200.01 137 208 1.000 10000.000 0.000 0.901
52 156.00 1200.01 141 233 1.000 10000.000 0.000 0.901
53 159.00 1200.01 169 183 1.000 10000.000 0.000 0.901
54 162.00 1200.01 144 222 1.000 10000.000 0.000 0.901
55 165.00 1200.01 138 208 1.000 10000.000 0.000 0.901
56 168.00 1200.01 145 184 1.000 10000.000 0.000 0.901
57 171.00 1200.01 125 220 1.000 10000.000 0.000 0.901
58 174.00 1200.01 145 216 1.000 10000.000 0.000 0.901
59 177.00 1200.01 139 202 1.000 10000.000 0.000 0.901
60 180.00 1200.01 141 224 1.000 10000.000 0.000 0.901
61 183.00 1200.01 138 203 1.000 10000.000 0.000 0.901
62 186.00 1200.01 149 217 1.000 10000.000 0.000 0.901
63 189.00 1200.01 156 239 1.000 10000.000 0.000 0.901
64 192.00 1200.01 142 205 1.000 10000.000 0.000 0.901
65 195.00 1200.01 159 243 1.000 10000.000 0.000 0.901
66 198.00 1200.01 152 302 1.000 10000.000 0.000 0.901
67 201.00 1200.01 149 359 1.000 10000.000 0.000 0.901
68 204.00 1200.01 164 352 1.000 10000.000 0.000 0.901
69 207.00 1200.01 160 388 1.000 10000.000 0.000 0.901
70 210.00 1200.01 161 412 1.000 10000.000 0.000 0.901
71 213.00 1200.01 169 397 1.000 10000.000 0.000 0.901
72 216.00 1200.01 189 432 1.000 10000.000 0.000 0.901
73 219.00 1200.01 151 440 1.000 10000.000 0.000 0.901
74 222.00 1200.01 167 445 1.000 10000.000 0.000 0.901
75 225.00 1200.01 172 399 1.000 10000.000 0.000 0.901
76 228.00 1200.01 188 327 1.000 10000.000 0.000 0.901
77 231.00 1200.01 162 310 1.000 10000.000 0.000 0.901
78 234.00 1200.01 134 342 1.000 10000.000 0.000 0.901
79 237.00 1200.01 168 319 1.000 10000.000 0.000 0.901
80 240.00 1200.01 152 260 1.000 10000.000 0.000 0.901
81 243.00 1200.01 150 254 1.000 10000.000 0.000 0.901
82 246.00 1200.01 134 249 1.000 10000.000 0.000 0.901
83 249.00 1200.01 134 223 1.000 10000.000 0.000 0.901
84 252.00 1200.01 125 204 1.000 10000.000 0.000 0.901
85 255.00 1200.01 149 208 1.000 10000.000 0.000 0.901
86 258.00 1200.01 136 216 1.000 10000.000 0.000 0.901
87 261.00 1200.01 142 235 1.000 10000.000 0.000 0.901
88 264.00 1200.01 156 206 1.000 10000.000 0.000 0.901
89 267.00 1200.01 150 200 1.000 10000.000 0.000 0.901
90 270.00 1200.01 154 212 1.000 10000.000 0.000 0.901
91 273.00 1200.01 137 206 1.000 10000.000 0.000 0.901
92 276.00 1200.01 149 196 1.000 10000.000 0.000 0.901
93 279.00 1200.01 159 181 1.000 10000.000 0.000 0.901
94 282.00 1200.01 151 204 1.000 10000.000 0.000 0.901
95 285.00 1200.01 140 212 1.000 10000.000 0.000 0.901
96 288.00 1200.01 158 210 1.000 10000.000 0.000 0.901
97 291.00 1200.01 170 240 1.000 10000.000 0.000 0.901
98 294.00 1200.01 175 284 1.000 10000.000 0.000 0.901
99 297.00 1200.01 141 286 1.000 10000.000 0.000 0.901
100 300.00 1200.01 115 274 1.000 10000.000 0.000 0.901
