# BinNR microsec tot-time (s)  O-Beam AUX Ampl(V) f(Hz) phase(deg) chi(pos)
0 0.00 1500.01 104 325 0.740 10000.000 0.000 0.659
1 3.00 1500.01 204 632 0.740 10000.000 0.000 0.659
2 6.00 1500.01 203 657 0.740 10000.000 0.000 0.659
3 9.00 1500.01 187 647 0.740 10000.000 0.000 0.659
4 12.00 1500.01 190 562 0.740 10000.000 0.000 0.659
5 15.00 1500.01 205 561 0.740 10000.000 0.000 0.659
6 18.00 1500.01 194 637 0.740 10000.000 0.000 0.659
7 21.00 1500.01 209 631 0.740 10000.000 0.000 0.659
8 24.00 1500.01 176 624 0.740 10000.000 0.000 0.659
9 27.00 1500.01 177 609 0.740 10000.000 0.000 0.659
10 30.00 1500.01 200 619 0.740 10000.000 0.000 0.659
11 33.00 1500.01 173 585 0.740 10000.000 0.000 0.659
12 36.00 1500.01 172 589 0.740 10000.000 0.000 0.659
13 39.00 1500.01 194 624 0.740 10000.000 0.000 0.659
14 42.00 1500.01 183 637 0.740 10000.000 0.000 0.659
15 45.00 1500.01 172 635 0.740 10000.000 0.000 0.659
16 48.00 1500.01 190 599 0.740 10000.000 0.000 0.659
17 51.00 1500.01 186 639 0.740 10000.000 0.000 0.659
18 54.00 1500.01 194 636 0.740 10000.000 0.000 0.659
19 57.00 1500.01 180 631 0.740 10000.000 0.000 0.659
20 60.00 1500.01 200 617 0.740 10000.000 0.000 0.659
21 63.00 1500.01 204 627 0.740 10000.000 0.000 0.659
22 66.00 1500.01 217 633 0.740 10000.000 0.000 0.659
23 69.00 1500.01 201 669 0.740 10000.000 0.000 0.659
24 72.00 1500.01 201 606 0.740 10000.000 0.000 0.659
25 75.00 1500.01 231 577 0.740 10000.000 0.000 0.659
26 78.00 1500.01 206 614 0.740 10000.000 0.000 0.659
27 81.00 1500.01 194 549 0.740 10000.000 0.000 0.659
28 84.00 1500.01 207 578 0.740 10000.000 0.000 0.659
29 87.00 1500.01 233 534 0.740 10000.000 0.000 0.659
30 90.00 1500.01 238 523 0.740 10000.000 0.000 0.659
31 93.00 1500.01 204 475 0.740 10000.000 0.000 0.659
32 96.00 1500.01 263 529 0.740 10000.000 0.000 0.659
33 99.00 1500.01 213 520 0.740 10000.000 0.000 0.659
34 102.00 1500.01 207 556 0.740 10000.000 0.000 0.659
35 105.00 1500.01 218 543 0.740 10000.000 0.000 0.659
36 108.00 1500.01 204 581 0.740 10000.000 0.000 0.659
37 111.00 1500.01 192 512 0.740 10000.000 0.000 0.659
38 114.00 1500.01 168 604 0.740 10000.000 0.000 0.659
39 117.00 1500.01 197 597 0.740 10000.000 0.000 0.659
40 120.00 1500.01 187 549 0.740 10000.000 0.000 0.659
41 123.00 1500.01 203 567 0.740 10000.000 0.000 0.659
42 126.00 1500.01 200 614 0.740 10000.000 0.000 0.659
43 129.00 1500.01 159 657 0.740 10000.000 0.000 0.659
44 132.00 1500.01 184 615 0.740 10000.000 0.000 0.659
45 135.00 1500.01 191 612 0.740 10000.000 0.000 0.659
46 138.00 1500.01 171 671 0.740 10000.000 0.000 0.659
47 141.00 1500.01 185 632 0.740 10000.000 0.000 0.659
48 144.00 1500.01 195 647 0.740 10000.000 0.000 0.659
49 147.00 1500.01 195 644 0.740 10000.000 0.000 0.659
50 150.00 1500.01 207 658 0.740 10000.000 0.000 0.659
51 153.00 1500.01 173 625 0.740 10000.000 0.000 0.659
52 156.00 1500.01 197 675 0.740 10000.000 0.000 0.659
53 159.00 1500.01 207 614 0.740 10000.000 0.000 0.659
54 162.00 1500.01 195 683 0.740 10000.000 0.000 0.659
55 165.00 1500.01 197 627 0.740 10000.000 0.000 0.659
56 168.00 1500.01 206 606 0.740 10000.000 0.000 0.659
57 171.00 1500.01 225 579 0.740 10000.000 0.000 0.659
58 174.00 1500.01 230 616 0.740 10000.000 0.000 0.659
59 177.00 1500.01 216 538 0.740 10000.000 0.000 0.659
60 180.00 1500.01 213 582 0.740 10000.000 0.000 0.659
61 183.00 1500.01 228 557 0.740 10000.000 0.000 0.659
62 186.00 1500.01 224 548 0.740 10000.000 0.000 0.659
63 189.00 1500.01 186 553 0.740 10000.000 0.000 0.659
64 192.00 1500.01 219 504 0.740 10000.000 0.000 0.659
65 195.00 1500.01 217 544 0.740 10000.000 0.000 0.659
66 198.00 1500.01 214 533 0.740 10000.000 0.000 0.659
67 201.00 1500.01 198 551 0.740 10000.000 0.000 0.659
68 204.00 1500.01 209 589 0.740 10000.000 0.000 0.659
69 207.00 1500.01 196 504 0.740 10000.000 0.000 0.659
70 210.00 1500.01 191 541 0.740 10000.000 0.000 0.659
71 213.00 1500.01 193 537 0.740 10000.000 0.000 0.659
72 216.00 1500.01 184 559 0.740 10000.000 0.000 0.659
73 219.00 1500.01 167 600 0.740 10000.000 0.000 0.659
74 222.00 1500.01 198 610 0.740 10000.000 0.000 0.659
75 225.00 1500.01 167 623 0.740 10000.000 0.000 0.659
76 228.00 1500.01 184 635 0.740 10000.000 0.000 0.659
77 231.00 1500.01 162 638 0.740 10000.000 0.000 0.659
78 234.00 1500.01 180 641 0.740 10000.000 0.000 0.659
79 237.00 1500.01 196 630 0.740 10000.000 0.000 0.659
80 240.00 1500.01 201 652 0.740 10000.000 0.000 0.659
81 243.00 1500.01 183 632 0.740 10000.000 0.000 0.659
82 246.00 1500.01 197 694 0.740 10000.000 0.000 0.659
83 249.00 1500.01 171 641 0.740 10000.000 0.000 0.659
84 252.00 1500.01 200 642 0.740 10000.000 0.000 0.659
85 255.00 1500.01 207 653 0.740 10000.000 0.000 0.659
86 258.00 1500.01 187 669 0.740 10000.000 0.000 0.659
87 261.00 1500.01 202 629 0.740 10000.000 0.000 0.659
88 264.00 1500.01 205 650 0.740 10000.000 0.000 0.659
89 267.00 1500.01 221 654 0.740 10000.000 0.000 0.659
90 270.00 1500.01 230 600 0.740 10000.000 0.000 0.659
91 273.00 1500.01 220 631 0.740 10000.000 0.000 0.659
92 276.00 1500.01 243 604 0.740 10000.000 0.000 0.659
93 279.00 1500.01 199 541 0.740 10000.000 0.000 0.659
94 282.00 1500.01 216 577 0.740 10000.000 0.000 0.659
95 285.00 1500.01 214 551 0.740 10000.000 0.000 0.659
96 288.00 1500.01 220 595 0.740 10000.000 0.000 0.659
97 291.00 1500.01 221 551 0.740 10000.000 0.000 0.659
98 294.00 1500.01 200 546 0.740 10000.000 0.000 0.659
99 297.00 1500.01 208 519 0.740 10000.000 0.000 0.659
100 300.00 1500.01 192 555 0.740 10000.000 0.000 0.659
101 303.00 1500.01 193 587 0.740 10000.000 0.000 0.659
102 306.00 1500.01 209 551 0.740 10000.000 0.000 0.659
103 309.00 1500.01 190 555 0.740 10000.000 0.000 0.659
104 312.00 1500.01 232 575 0.740 10000.000 0.000 0.659
105 315.00 1500.01 195 520 0.740 10000.000 0.000 0.659
106 318.00 1500.01 214 610 0.740 10000.000 0.000 0.659
107 321.00 1500.01 212 585 0.740 10000.000 0.000 0.659
108 324.00 1500.01 200 639 0.740 10000.000 0.000 0.659
109 327.00 1500.01 192 595 0.740 10000.000 0.000 0.659
110 330.00 1500.01 214 622 0.740 10000.000 0.000 0.659
111 333.00 1500.01 212 611 0.740 10000.000 0.000 0.659
112 336.00 1500.01 202 653 0.740 10000.000 0.000 0.659
113 339.00 1500.01 207 647 0.740 10000.000 0.000 0.659
114 342.00 1500.01 188 684 0.740 10000.000 0.000 0.659
115 345.00 1500.01 182 605 0.740 10000.000 0.000 0.659
116 348.00 1500.01 218 676 0.740 10000.000 0.000 0.659
117 351.00 1500.01 192 651 0.740 10000.000 0.000 0.659
118 354.00 1500.01 199 712 0.740 10000.000 0.000 0.659
119 357.00 1500.01 181 627 0.740 10000.000 0.000 0.659
120 360.00 1500.01 193 633 0.740 10000.000 0.000 0.659
121 363.00 1500.01 159 677 0.740 10000.000 0.000 0.659
122 366.00 1500.01 160 606 0.740 10000.000 0.000 0.659
123 369.00 1500.01 184 613 0.740 10000.000 0.000 0.659
124 372.00 1500.01 171 583 0.740 10000.000 0.000 0.659
125 375.00 1500.01 181 550 0.740 10000.000 0.000 0.659
126 378.00 1500.01 187 630 0.740 10000.000 0.000 0.659
127 381.00 1500.01 184 586 0.740 10000.000 0.000 0.659
128 384.00 1500.01 246 562 0.740 10000.000 0.000 0.659
129 387.00 1500.01 177 530 0.740 10000.000 0.000 0.659
130 390.00 1500.01 197 511 0.740 10000.000 0.000 0.659
131 393.00 1500.01 188 495 0.740 10000.000 0.000 0.659
132 396.00 1500.01 204 548 0.740 10000.000 0.000 0.659
133 399.00 1500.01 193 541 0.740 10000.000 0.000 0.659
134 402.00 1500.01 212 530 0.740 10000.000 0.000 0.659
135 405.00 1500.01 221 500 0.740 10000.000 0.000 0.659
136 408.00 1500.01 209 559 0.740 10000.000 0.000 0.659
137 411.00 1500.01 218 549 0.740 10000.000 0.000 0.659
138 414.00 1500.01 231 559 0.740 10000.000 0.000 0.659
139 417.00 1500.01 217 600 0.740 10000.000 0.000 0.659
140 420.00 1500.01 206 596 0.740 10000.000 0.000 0.659
141 423.00 1500.01 212 609 0.740 10000.000 0.000 0.659
142 426.00 1500.01 215 623 0.740 10000.000 0.000 0.659
143 429.00 1500.01 205 644 0.740 10000.000 0.000 0.659
144 432.00 1500.01 220 630 0.740 10000.000 0.000 0.659
