# BinNR microsec tot-time (s)  O-Beam AUX Ampl(V) f(Hz) phase(deg) chi(pos)
0 0.00 1500.00 56 136 0.740 10000.000 0.000 0.165
1 3.00 1500.00 115 306 0.740 10000.000 0.000 0.165
2 6.00 1500.00 122 283 0.740 10000.000 0.000 0.165
3 9.00 1500.00 93 302 0.740 10000.000 0.000 0.165
4 12.00 1500.00 103 300 0.740 10000.000 0.000 0.165
5 15.00 1500.00 89 263 0.740 10000.000 0.000 0.165
6 18.00 1500.00 100 282 0.740 10000.000 0.000 0.165
7 21.00 1500.00 97 258 0.740 10000.000 0.000 0.165
8 24.00 1500.00 101 272 0.740 10000.000 0.000 0.165
9 27.00 1500.00 104 255 0.740 10000.000 0.000 0.165
10 30.00 1500.00 109 267 0.740 10000.000 0.000 0.165
11 33.00 1500.00 111 260 0.740 10000.000 0.000 0.165
12 36.00 1500.00 108 251 0.740 10000.000 0.000 0.165
13 39.00 1500.00 103 241 0.740 10000.000 0.000 0.165
14 42.00 1500.00 93 297 0.740 10000.000 0.000 0.165
15 45.00 1500.00 90 267 0.740 10000.000 0.000 0.165
16 48.00 1500.00 97 301 0.740 10000.000 0.000 0.165
17 51.00 1500.00 104 279 0.740 10000.000 0.000 0.165
18 54.00 1500.00 100 295 0.740 10000.000 0.000 0.165
19 57.00 1500.00 105 287 0.740 10000.000 0.000 0.165
20 60.00 1500.00 134 289 0.740 10000.000 0.000 0.165
21 63.00 1500.00 106 273 0.740 10000.000 0.000 0.165
22 66.00 1500.00 110 278 0.740 10000.000 0.000 0.165
23 69.00 1500.00 115 255 0.740 10000.000 0.000 0.165
24 72.00 1500.00 127 270 0.740 10000.000 0.000 0.165
25 75.00 1500.00 124 237 0.740 10000.000 0.000 0.165
26 78.00 1500.00 103 260 0.740 10000.000 0.000 0.165
27 81.00 1500.00 114 228 0.740 10000.000 0.000 0.165
28 84.00 1500.00 122 231 0.740 10000.000 0.000 0.165
29 87.00 1500.00 116 235 0.740 10000.000 0.000 0.165
30 90.00 1500.00 117 237 0.740 10000.000 0.000 0.165
31 93.00 1500.00 117 234 0.740 10000.000 0.000 0.165
32 96.00 1500.00 112 216 0.740 10000.000 0.000 0.165
33 99.00 1500.00 120 244 0.740 10000.000 0.000 0.165
34 102.00 1500.00 103 197 0.740 10000.000 0.000 0.165
35 105.00 1500.00 110 209 0.740 10000.000 0.000 0.165
36 108.00 1500.00 106 226 0.740 10000.000 0.000 0.165
37 111.00 1500.00 109 208 0.740 10000.000 0.000 0.165
38 114.00 1500.00 110 281 0.740 10000.000 0.000 0.165
39 117.00 1500.00 116 249 0.740 10000.000 0.000 0.165
40 120.00 1500.00 94 213 0.740 10000.000 0.000 0.165
41 123.00 1500.00 104 248 0.740 10000.000 0.000 0.165
42 126.00 1500.00 110 286 0.740 10000.000 0.000 0.165
43 129.00 1500.00 95 252 0.740 10000.000 0.000 0.165
44 132.00 1500.00 116 320 0.740 10000.000 0.000 0.165
45 135.00 1500.00 112 290 0.740 10000.000 0.000 0.165
46 138.00 1500.00 98 316 0.740 10000.000 0.000 0.165
47 141.00 1500.00 105 322 0.740 10000.000 0.000 0.165
48 144.00 1500.00 99 327 0.740 10000.000 0.000 0.165
49 147.00 1500.00 115 299 0.740 10000.000 0.000 0.165
50 150.00 1500.00 103 306 0.740 10000.000 0.000 0.165
51 153.00 1500.00 118 303 0.740 10000.000 0.000 0.165
52 156.00 1500.00 100 263 0.740 10000.000 0.000 0.165
53 159.00 1500.00 89 313 0.740 10000.000 0.000 0.165
54 162.00 1500.00 100 283 0.740 10000.000 0.000 0.165
55 165.00 1500.00 109 300 0.740 10000.000 0.000 0.165
56 168.00 1500.00 114 256 0.740 10000.000 0.000 0.165
57 171.00 1500.00 123 257 0.740 10000.000 0.000 0.165
58 174.00 1500.00 123 255 0.740 10000.000 0.000 0.165
59 177.00 1500.00 119 270 0.740 10000.000 0.000 0.165
60 180.00 1500.00 134 219 0.740 10000.000 0.000 0.165
61 183.00 1500.00 107 239 0.740 10000.000 0.000 0.165
62 186.00 1500.00 136 228 0.740 10000.000 0.000 0.165
63 189.00 1500.00 118 261 0.740 10000.000 0.000 0.165
64 192.00 1500.00 117 223 0.740 10000.000 0.000 0.165
65 195.00 1500.00 114 233 0.740 10000.000 0.000 0.165
66 198.00 1500.00 103 204 0.740 10000.000 0.000 0.165
67 201.00 1500.00 108 228 0.740 10000.000 0.000 0.165
68 204.00 1500.00 104 224 0.740 10000.000 0.000 0.165
69 207.00 1500.00 101 199 0.740 10000.000 0.000 0.165
70 210.00 1500.00 98 259 0.740 10000.000 0.000 0.165
71 213.00 1500.00 102 213 0.740 10000.000 0.000 0.165
72 216.00 1500.00 111 252 0.740 10000.000 0.000 0.165
73 219.00 1500.00 112 237 0.740 10000.000 0.000 0.165
74 222.00 1500.00 100 249 0.740 10000.000 0.000 0.165
75 225.00 1500.00 113 266 0.740 10000.000 0.000 0.165
76 228.00 1500.00 112 276 0.740 10000.000 0.000 0.165
77 231.00 1500.00 95 285 0.740 10000.000 0.000 0.165
78 234.00 1500.00 112 295 0.740 10000.000 0.000 0.165
79 237.00 1500.00 116 300 0.740 10000.000 0.000 0.165
80 240.00 1500.00 104 290 0.740 10000.000 0.000 0.165
81 243.00 1500.00 99 289 0.740 10000.000 0.000 0.165
82 246.00 1500.00 97 310 0.740 10000.000 0.000 0.165
83 249.00 1500.00 98 292 0.740 10000.000 0.000 0.165
84 252.00 1500.00 118 273 0.740 10000.000 0.000 0.165
85 255.00 1500.00 105 322 0.740 10000.000 0.000 0.165
86 258.00 1500.00 131 287 0.740 10000.000 0.000 0.165
87 261.00 1500.00 108 288 0.740 10000.000 0.000 0.165
88 264.00 1500.00 118 287 0.740 10000.000 0.000 0.165
89 267.00 1500.00 118 292 0.740 10000.000 0.000 0.165
90 270.00 1500.00 111 274 0.740 10000.000 0.000 0.165
91 273.00 1500.00 127 285 0.740 10000.000 0.000 0.165
92 276.00 1500.00 113 212 0.740 10000.000 0.000 0.165
93 279.00 1500.00 119 220 0.740 10000.000 0.000 0.165
94 282.00 1500.00 124 242 0.740 10000.000 0.000 0.165
95 285.00 1500.00 95 198 0.740 10000.000 0.000 0.165
96 288.00 1500.00 127 241 0.740 10000.000 0.000 0.165
97 291.00 1500.00 125 230 0.740 10000.000 0.000 0.165
98 294.00 1500.00 120 240 0.740 10000.000 0.000 0.165
99 297.00 1500.00 125 229 0.740 10000.000 0.000 0.165
100 300.00 1500.00 114 236 0.740 10000.000 0.000 0.165
101 303.00 1500.00 114 208 0.740 10000.000 0.000 0.165
102 306.00 1500.00 119 224 0.740 10000.000 0.000 0.165
103 309.00 1500.00 115 241 0.740 10000.000 0.000 0.165
104 312.00 1500.00 97 236 0.740 10000.000 0.000 0.165
105 315.00 1500.00 118 240 0.740 10000.000 0.000 0.165
106 318.00 1500.00 110 252 0.740 10000.000 0.000 0.165
107 321.00 1500.00 99 227 0.740 10000.000 0.000 0.165
108 324.00 1500.00 126 265 0.740 10000.000 0.000 0.165
109 327.00 1500.00 117 267 0.740 10000.000 0.000 0.165
110 330.00 1500.00 126 312 0.740 10000.000 0.000 0.165
111 333.00 1500.00 115 316 0.740 10000.000 0.000 0.165
112 336.00 1500.00 116 263 0.740 10000.000 0.000 0.165
113 339.00 1500.00 98 284 0.740 10000.000 0.000 0.165
114 342.00 1500.00 100 307 0.740 10000.000 0.000 0.165
115 345.00 1500.00 109 323 0.740 10000.000 0.000 0.165
116 348.00 1500.00 128 302 0.740 10000.000 0.000 0.165
117 351.00 1500.00 105 293 0.740 10000.000 0.000 0.165
118 354.00 1500.00 108 332 0.740 10000.000 0.000 0.165
119 357.00 1500.00 126 291 0.740 10000.000 0.000 0.165
120 360.00 1500.00 109 294 0.740 10000.000 0.000 0.165
121 363.00 1500.00 108 306 0.740 10000.000 0.000 0.165
122 366.00 1500.00 117 288 0.740 10000.000 0.000 0.165
123 369.00 1500.00 99 219 0.740 10000.000 0.000 0.165
124 372.00 1500.00 111 292 0.740 10000.000 0.000 0.165
125 375.00 1500.00 91 234 0.740 10000.000 0.000 0.165
126 378.00 1500.00 95 254 0.740 10000.000 0.000 0.165
127 381.00 1500.00 103 255 0.740 10000.000 0.000 0.165
128 384.00 1500.00 113 240 0.740 10000.000 0.000 0.165
129 387.00 1500.00 105 203 0.740 10000.000 0.000 0.165
130 390.00 1500.00 117 228 0.740 10000.000 0.000 0.165
131 393.00 1500.00 106 211 0.740 10000.000 0.000 0.165
132 396.00 1500.00 138 195 0.740 10000.000 0.000 0.165
133 399.00 1500.00 125 222 0.740 10000.000 0.000 0.165
134 402.00 1500.00 101 208 0.740 10000.000 0.000 0.165
135 405.00 1500.00 109 208 0.740 10000.000 0.000 0.165
136 408.00 1500.00 139 230 0.740 10000.000 0.000 0.165
137 411.00 1500.00 109 221 0.740 10000.000 0.000 0.165
138 414.00 1500.00 150 226 0.740 10000.000 0.000 0.165
139 417.00 1500.00 123 235 0.740 10000.000 0.000 0.165
140 420.00 1500.00 118 271 0.740 10000.000 0.000 0.165
141 423.00 1500.00 117 233 0.740 10000.000 0.000 0.165
142 426.00 1500.00 124 285 0.740 10000.000 0.000 0.165
143 429.00 1500.00 112 268 0.740 10000.000 0.000 0.165
144 432.00 1500.00 100 298 0.740 10000.000 0.000 0.165
