# BinNR microsec tot-time (s)  O-Beam AUX Ampl(V) f(Hz) phase(deg) chi(pos)
0 0.00 1500.02 97 193 0.740 10000.000 0.000 1.505
1 3.00 1500.02 173 439 0.740 10000.000 0.000 1.505
2 6.00 1500.02 189 399 0.740 10000.000 0.000 1.505
3 9.00 1500.02 197 402 0.740 10000.000 0.000 1.505
4 12.00 1500.02 226 397 0.740 10000.000 0.000 1.505
5 15.00 1500.02 190 429 0.740 10000.000 0.000 1.505
6 18.00 1500.02 200 434 0.740 10000.000 0.000 1.505
7 21.00 1500.02 176 435 0.740 10000.000 0.000 1.505
8 24.00 1500.02 190 442 0.740 10000.000 0.000 1.505
9 27.00 1500.02 222 450 0.740 10000.000 0.000 1.505
10 30.00 1500.02 223 442 0.740 10000.000 0.000 1.505
11 33.00 1500.02 212 432 0.740 10000.000 0.000 1.505
12 36.00 1500.02 221 466 0.740 10000.000 0.000 1.505
13 39.00 1500.02 204 465 0.740 10000.000 0.000 1.505
14 42.00 1500.02 187 451 0.740 10000.000 0.000 1.505
15 45.00 1500.02 182 459 0.740 10000.000 0.000 1.505
16 48.00 1500.02 200 400 0.740 10000.000 0.000 1.505
17 51.00 1500.02 186 407 0.740 10000.000 0.000 1.505
18 54.00 1500.02 186 386 0.740 10000.000 0.000 1.505
19 57.00 1500.02 156 402 0.740 10000.000 0.000 1.505
20 60.00 1500.02 221 424 0.740 10000.000 0.000 1.505
21 63.00 1500.02 192 399 0.740 10000.000 0.000 1.505
22 66.00 1500.02 188 402 0.740 10000.000 0.000 1.505
23 69.00 1500.02 156 428 0.740 10000.000 0.000 1.505
24 72.00 1500.02 193 481 0.740 10000.000 0.000 1.505
25 75.00 1500.02 178 452 0.740 10000.000 0.000 1.505
26 78.00 1500.02 172 481 0.740 10000.000 0.000 1.505
27 81.00 1500.02 173 475 0.740 10000.000 0.000 1.505
28 84.00 1500.02 158 525 0.740 10000.000 0.000 1.505
29 87.00 1500.02 174 564 0.740 10000.000 0.000 1.505
30 90.00 1500.02 162 557 0.740 10000.000 0.000 1.505
31 93.00 1500.02 188 531 0.740 10000.000 0.000 1.505
32 96.00 1500.02 193 524 0.740 10000.000 0.000 1.505
33 99.00 1500.02 196 504 0.740 10000.000 0.000 1.505
34 102.00 1500.02 171 555 0.740 10000.000 0.000 1.505
35 105.00 1500.02 180 489 0.740 10000.000 0.000 1.505
36 108.00 1500.02 207 495 0.740 10000.000 0.000 1.505
37 111.00 1500.02 191 516 0.740 10000.000 0.000 1.505
38 114.00 1500.02 189 500 0.740 10000.000 0.000 1.505
39 117.00 1500.02 168 456 0.740 10000.000 0.000 1.505
40 120.00 1500.02 190 463 0.740 10000.000 0.000 1.505
41 123.00 1500.02 194 446 0.740 10000.000 0.000 1.505
42 126.00 1500.02 236 450 0.740 10000.000 0.000 1.505
43 129.00 1500.02 214 444 0.740 10000.000 0.000 1.505
44 132.00 1500.02 211 431 0.740 10000.000 0.000 1.505
45 135.00 1500.02 214 408 0.740 10000.000 0.000 1.505
46 138.00 1500.02 203 393 0.740 10000.000 0.000 1.505
47 141.00 1500.02 220 364 0.740 10000.000 0.000 1.505
48 144.00 1500.02 221 365 0.740 10000.000 0.000 1.505
49 147.00 1500.02 180 383 0.740 10000.000 0.000 1.505
50 150.00 1500.02 182 346 0.740 10000.000 0.000 1.505
51 153.00 1500.02 208 398 0.740 10000.000 0.000 1.505
52 156.00 1500.02 198 372 0.740 10000.000 0.000 1.505
53 159.00 1500.02 201 409 0.740 10000.000 0.000 1.505
54 162.00 1500.02 182 409 0.740 10000.000 0.000 1.505
55 165.00 1500.02 187 442 0.740 10000.000 0.000 1.505
56 168.00 1500.02 182 432 0.740 10000.000 0.000 1.505
57 171.00 1500.02 186 455 0.740 10000.000 0.000 1.505
58 174.00 1500.02 167 491 0.740 10000.000 0.000 1.505
59 177.00 1500.02 177 442 0.740 10000.000 0.000 1.505
60 180.00 1500.02 168 510 0.740 10000.000 0.000 1.505
61 183.00 1500.02 163 487 0.740 10000.000 0.000 1.505
62 186.00 1500.02 159 521 0.740 10000.000 0.000 1.505
63 189.00 1500.02 170 518 0.740 10000.000 0.000 1.505
64 192.00 1500.02 182 519 0.740 10000.000 0.000 1.505
65 195.00 1500.02 169 538 0.740 10000.000 0.000 1.505
66 198.00 1500.02 167 510 0.740 10000.000 0.000 1.505
67 201.00 1500.02 196 520 0.740 10000.000 0.000 1.505
68 204.00 1500.02 197 524 0.740 10000.000 0.000 1.505
69 207.00 1500.02 163 506 0.740 10000.000 0.000 1.505
70 210.00 1500.02 183 505 0.740 10000.000 0.000 1.505
71 213.00 1500.02 194 487 0.740 10000.000 0.000 1.505
72 216.00 1500.02 168 489 0.740 10000.000 0.000 1.505
73 219.00 1500.02 209 440 0.740 10000.000 0.000 1.505
74 222.00 1500.02 189 429 0.740 10000.000 0.000 1.505
75 225.00 1500.02 186 424 0.740 10000.000 0.000 1.505
76 228.00 1500.02 185 449 0.740 10000.000 0.000 1.505
77 231.00 1500.02 217 425 0.740 10000.000 0.000 1.505
78 234.00 1500.02 216 415 0.740 10000.000 0.000 1.505
79 237.00 1500.02 199 425 0.740 10000.000 0.000 1.505
80 240.00 1500.02 209 415 0.740 10000.000 0.000 1.505
81 243.00 1500.02 186 409 0.740 10000.000 0.000 1.505
82 246.00 1500.02 224 350 0.740 10000.000 0.000 1.505
83 249.00 1500.02 192 354 0.740 10000.000 0.000 1.505
84 252.00 1500.02 181 404 0.740 10000.000 0.000 1.505
85 255.00 1500.02 220 399 0.740 10000.000 0.000 1.505
86 258.00 1500.02 224 400 0.740 10000.000 0.000 1.505
87 261.00 1500.02 187 400 0.740 10000.000 0.000 1.505
88 264.00 1500.02 204 383 0.740 10000.000 0.000 1.505
89 267.00 1500.02 205 394 0.740 10000.000 0.000 1.505
90 270.00 1500.02 182 408 0.740 10000.000 0.000 1.505
91 273.00 1500.02 190 464 0.740 10000.000 0.000 1.505
92 276.00 1500.02 170 485 0.740 10000.000 0.000 1.505
93 279.00 1500.02 186 469 0.740 10000.000 0.000 1.505
94 282.00 1500.02 164 540 0.740 10000.000 0.000 1.505
95 285.00 1500.02 168 490 0.740 10000.000 0.000 1.505
96 288.00 1500.02 200 564 0.740 10000.000 0.000 1.505
97 291.00 1500.02 179 542 0.740 10000.000 0.000 1.505
98 294.00 1500.02 159 567 0.740 10000.000 0.000 1.505
99 297.00 1500.02 179 482 0.740 10000.000 0.000 1.505
100 300.00 1500.02 194 524 0.740 10000.000 0.000 1.505
101 303.00 1500.02 191 550 0.740 10000.000 0.000 1.505
102 306.00 1500.02 193 530 0.740 10000.000 0.000 1.505
103 309.00 1500.02 203 546 0.740 10000.000 0.000 1.505
104 312.00 1500.02 173 543 0.740 10000.000 0.000 1.505
105 315.00 1500.02 182 458 0.740 10000.000 0.000 1.505
106 318.00 1500.02 177 484 0.740 10000.000 0.000 1.505
107 321.00 1500.02 171 457 0.740 10000.000 0.000 1.505
108 324.00 1500.02 173 451 0.740 10000.000 0.000 1.505
109 327.00 1500.02 205 406 0.740 10000.000 0.000 1.505
110 330.00 1500.02 176 356 0.740 10000.000 0.000 1.505
111 333.00 1500.02 170 412 0.740 10000.000 0.000 1.505
112 336.00 1500.02 172 456 0.740 10000.000 0.000 1.505
113 339.00 1500.02 191 401 0.740 10000.000 0.000 1.505
114 342.00 1500.02 172 353 0.740 10000.000 0.000 1.505
115 345.00 1500.02 178 374 0.740 10000.000 0.000 1.505
116 348.00 1500.02 183 365 0.740 10000.000 0.000 1.505
117 351.00 1500.02 210 393 0.740 10000.000 0.000 1.505
118 354.00 1500.02 217 368 0.740 10000.000 0.000 1.505
119 357.00 1500.02 194 372 0.740 10000.000 0.000 1.505
120 360.00 1500.02 202 393 0.740 10000.000 0.000 1.505
121 363.00 1500.02 204 444 0.740 10000.000 0.000 1.505
122 366.00 1500.02 189 430 0.740 10000.000 0.000 1.505
123 369.00 1500.02 210 436 0.740 10000.000 0.000 1.505
124 372.00 1500.02 190 501 0.740 10000.000 0.000 1.505
125 375.00 1500.02 217 500 0.740 10000.000 0.000 1.505
126 378.00 1500.02 199 472 0.740 10000.000 0.000 1.505
127 381.00 1500.02 208 480 0.740 10000.000 0.000 1.505
128 384.00 1500.02 230 524 0.740 10000.000 0.000 1.505
129 387.00 1500.02 205 542 0.740 10000.000 0.000 1.505
130 390.00 1500.02 189 547 0.740 10000.000 0.000 1.505
131 393.00 1500.02 174 521 0.740 10000.000 0.000 1.505
132 396.00 1500.02 186 520 0.740 10000.000 0.000 1.505
133 399.00 1500.02 176 507 0.740 10000.000 0.000 1.505
134 402.00 1500.02 203 515 0.740 10000.000 0.000 1.505
135 405.00 1500.02 175 551 0.740 10000.000 0.000 1.505
136 408.00 1500.02 173 572 0.740 10000.000 0.000 1.505
137 411.00 1500.02 191 544 0.740 10000.000 0.000 1.505
138 414.00 1500.02 187 496 0.740 10000.000 0.000 1.505
139 417.00 1500.02 168 454 0.740 10000.000 0.000 1.505
140 420.00 1500.02 141 480 0.740 10000.000 0.000 1.505
141 423.00 1500.02 201 416 0.740 10000.000 0.000 1.505
142 426.00 1500.02 167 402 0.740 10000.000 0.000 1.505
143 429.00 1500.02 150 439 0.740 10000.000 0.000 1.505
144 432.00 1500.02 174 422 0.740 10000.000 0.000 1.505
