# BinNR microsec tot-time (s)  O-Beam AUX Ampl(V) f(Hz) phase(deg) chi(pos)
0 0.00 1500.02 95 332 0.740 10000.000 0.000 -1.329
1 3.00 1500.02 190 628 0.740 10000.000 0.000 -1.329
2 6.00 1500.02 209 631 0.740 10000.000 0.000 -1.329
3 9.00 1500.02 197 609 0.740 10000.000 0.000 -1.329
4 12.00 1500.02 176 670 0.740 10000.000 0.000 -1.329
5 15.00 1500.02 167 656 0.740 10000.000 0.000 -1.329
6 18.00 1500.02 197 568 0.740 10000.000 0.000 -1.329
7 21.00 1500.02 185 627 0.740 10000.000 0.000 -1.329
8 24.00 1500.02 183 652 0.740 10000.000 0.000 -1.329
9 27.00 1500.02 157 594 0.740 10000.000 0.000 -1.329
10 30.00 1500.02 186 551 0.740 10000.000 0.000 -1.329
11 33.00 1500.02 168 577 0.740 10000.000 0.000 -1.329
12 36.00 1500.02 168 622 0.740 10000.000 0.000 -1.329
13 39.00 1500.02 169 602 0.740 10000.000 0.000 -1.329
14 42.00 1500.02 198 590 0.740 10000.000 0.000 -1.329
15 45.00 1500.02 172 592 0.740 10000.000 0.000 -1.329
16 48.00 1500.02 162 645 0.740 10000.000 0.000 -1.329
17 51.00 1500.02 163 622 0.740 10000.000 0.000 -1.329
18 54.00 1500.02 182 609 0.740 10000.000 0.000 -1.329
19 57.00 1500.02 197 637 0.740 10000.000 0.000 -1.329
20 60.00 1500.02 211 667 0.740 10000.000 0.000 -1.329
21 63.00 1500.02 181 609 0.740 10000.000 0.000 -1.329
22 66.00 1500.02 225 661 0.740 10000.000 0.000 -1.329
23 69.00 1500.02 188 607 0.740 10000.000 0.000 -1.329
24 72.00 1500.02 198 564 0.740 10000.000 0.000 -1.329
25 75.00 1500.02 207 611 0.740 10000.000 0.000 -1.329
26 78.00 1500.02 218 526 0.740 10000.000 0.000 -1.329
27 81.00 1500.02 223 617 0.740 10000.000 0.000 -1.329
28 84.00 1500.02 238 516 0.740 10000.000 0.000 -1.329
29 87.00 1500.02 216 499 0.740 10000.000 0.000 -1.329
30 90.00 1500.02 223 549 0.740 10000.000 0.000 -1.329
31 93.00 1500.02 187 485 0.740 10000.000 0.000 -1.329
32 96.00 1500.02 212 514 0.740 10000.000 0.000 -1.329
33 99.00 1500.02 228 498 0.740 10000.000 0.000 -1.329
34 102.00 1500.02 204 569 0.740 10000.000 0.000 -1.329
35 105.00 1500.02 206 508 0.740 10000.000 0.000 -1.329
36 108.00 1500.02 205 554 0.740 10000.000 0.000 -1.329
37 111.00 1500.02 201 556 0.740 10000.000 0.000 -1.329
38 114.00 1500.02 195 578 0.740 10000.000 0.000 -1.329
39 117.00 1500.02 172 586 0.740 10000.000 0.000 -1.329
40 120.00 1500.02 187 578 0.740 10000.000 0.000 -1.329
41 123.00 1500.02 183 576 0.740 10000.000 0.000 -1.329
42 126.00 1500.02 160 591 0.740 10000.000 0.000 -1.329
43 129.00 1500.02 180 638 0.740 10000.000 0.000 -1.329
44 132.00 1500.02 160 631 0.740 10000.000 0.000 -1.329
45 135.00 1500.02 173 654 0.740 10000.000 0.000 -1.329
46 138.00 1500.02 165 702 0.740 10000.000 0.000 -1.329
47 141.00 1500.02 197 648 0.740 10000.000 0.000 -1.329
48 144.00 1500.02 179 684 0.740 10000.000 0.000 -1.329
49 147.00 1500.02 191 632 0.740 10000.000 0.000 -1.329
50 150.00 1500.02 211 645 0.740 10000.000 0.000 -1.329
51 153.00 1500.02 164 615 0.740 10000.000 0.000 -1.329
52 156.00 1500.02 214 631 0.740 10000.000 0.000 -1.329
53 159.00 1500.02 179 620 0.740 10000.000 0.000 -1.329
54 162.00 1500.02 193 633 0.740 10000.000 0.000 -1.329
55 165.00 1500.02 186 639 0.740 10000.000 0.000 -1.329
56 168.00 1500.02 221 594 0.740 10000.000 0.000 -1.329
57 171.00 1500.02 234 597 0.740 10000.000 0.000 -1.329
58 174.00 1500.02 199 600 0.740 10000.000 0.000 -1.329
59 177.00 1500.02 201 568 0.740 10000.000 0.000 -1.329
60 180.00 1500.02 230 608 0.740 10000.000 0.000 -1.329
61 183.00 1500.02 219 486 0.740 10000.000 0.000 -1.329
62 186.00 1500.02 226 548 0.740 10000.000 0.000 -1.329
63 189.00 1500.02 218 505 0.740 10000.000 0.000 -1.329
64 192.00 1500.02 220 526 0.740 10000.000 0.000 -1.329
65 195.00 1500.02 222 513 0.740 10000.000 0.000 -1.329
66 198.00 1500.02 195 531 0.740 10000.000 0.000 -1.329
67 201.00 1500.02 196 518 0.740 10000.000 0.000 -1.329
68 204.00 1500.02 190 524 0.740 10000.000 0.000 -1.329
69 207.00 1500.02 190 541 0.740 10000.000 0.000 -1.329
70 210.00 1500.02 195 523 0.740 10000.000 0.000 -1.329
71 213.00 1500.02 197 599 0.740 10000.000 0.000 -1.329
72 216.00 1500.02 209 589 0.740 10000.000 0.000 -1.329
73 219.00 1500.02 198 572 0.740 10000.000 0.000 -1.329
74 222.00 1500.02 174 600 0.740 10000.000 0.000 -1.329
75 225.00 1500.02 159 608 0.740 10000.000 0.000 -1.329
76 228.00 1500.02 202 579 0.740 10000.000 0.000 -1.329
77 231.00 1500.02 184 656 0.740 10000.000 0.000 -1.329
78 234.00 1500.02 176 650 0.740 10000.000 0.000 -1.329
79 237.00 1500.02 167 589 0.740 10000.000 0.000 -1.329
80 240.00 1500.02 170 672 0.740 10000.000 0.000 -1.329
81 243.00 1500.02 162 656 0.740 10000.000 0.000 -1.329
82 246.00 1500.02 197 665 0.740 10000.000 0.000 -1.329
83 249.00 1500.02 194 639 0.740 10000.000 0.000 -1.329
84 252.00 1500.02 212 658 0.740 10000.000 0.000 -1.329
85 255.00 1500.02 205 646 0.740 10000.000 0.000 -1.329
86 258.00 1500.02 194 634 0.740 10000.000 0.000 -1.329
87 261.00 1500.02 210 676 0.740 10000.000 0.000 -1.329
88 264.00 1500.02 198 611 0.740 10000.000 0.000 -1.329
89 267.00 1500.02 193 594 0.740 10000.000 0.000 -1.329
90 270.00 1500.02 198 580 0.740 10000.000 0.000 -1.329
91 273.00 1500.02 190 607 0.740 10000.000 0.000 -1.329
92 276.00 1500.02 227 567 0.740 10000.000 0.000 -1.329
93 279.00 1500.02 193 551 0.740 10000.000 0.000 -1.329
94 282.00 1500.02 224 526 0.740 10000.000 0.000 -1.329
95 285.00 1500.02 185 552 0.740 10000.000 0.000 -1.329
96 288.00 1500.02 227 538 0.740 10000.000 0.000 -1.329
97 291.00 1500.02 210 502 0.740 10000.000 0.000 -1.329
98 294.00 1500.02 215 487 0.740 10000.000 0.000 -1.329
99 297.00 1500.02 194 509 0.740 10000.000 0.000 -1.329
100 300.00 1500.02 192 519 0.740 10000.000 0.000 -1.329
101 303.00 1500.02 192 492 0.740 10000.000 0.000 -1.329
102 306.00 1500.02 201 557 0.740 10000.000 0.000 -1.329
103 309.00 1500.02 203 569 0.740 10000.000 0.000 -1.329
104 312.00 1500.02 194 527 0.740 10000.000 0.000 -1.329
105 315.00 1500.02 212 550 0.740 10000.000 0.000 -1.329
106 318.00 1500.02 187 580 0.740 10000.000 0.000 -1.329
107 321.00 1500.02 227 568 0.740 10000.000 0.000 -1.329
108 324.00 1500.02 215 599 0.740 10000.000 0.000 -1.329
109 327.00 1500.02 219 567 0.740 10000.000 0.000 -1.329
110 330.00 1500.02 205 605 0.740 10000.000 0.000 -1.329
111 333.00 1500.02 218 645 0.740 10000.000 0.000 -1.329
112 336.00 1500.02 193 633 0.740 10000.000 0.000 -1.329
113 339.00 1500.02 196 652 0.740 10000.000 0.000 -1.329
114 342.00 1500.02 194 641 0.740 10000.000 0.000 -1.329
115 345.00 1500.02 184 620 0.740 10000.000 0.000 -1.329
116 348.00 1500.02 194 676 0.740 10000.000 0.000 -1.329
117 351.00 1500.02 171 618 0.740 10000.000 0.000 -1.329
118 354.00 1500.02 197 680 0.740 10000.000 0.000 -1.329
119 357.00 1500.02 183 615 0.740 10000.000 0.000 -1.329
120 360.00 1500.02 143 684 0.740 10000.000 0.000 -1.329
121 363.00 1500.02 175 605 0.740 10000.000 0.000 -1.329
122 366.00 1500.02 181 607 0.740 10000.000 0.000 -1.329
123 369.00 1500.02 172 604 0.740 10000.000 0.000 -1.329
124 372.00 1500.02 179 566 0.740 10000.000 0.000 -1.329
125 375.00 1500.02 174 581 0.740 10000.000 0.000 -1.329
126 378.00 1500.02 164 571 0.740 10000.000 0.000 -1.329
127 381.00 1500.02 186 509 0.740 10000.000 0.000 -1.329
128 384.00 1500.02 182 566 0.740 10000.000 0.000 -1.329
129 387.00 1500.02 170 508 0.740 10000.000 0.000 -1.329
130 390.00 1500.02 210 531 0.740 10000.000 0.000 -1.329
131 393.00 1500.02 182 497 0.740 10000.000 0.000 -1.329
132 396.00 1500.02 202 487 0.740 10000.000 0.000 -1.329
133 399.00 1500.02 216 478 0.740 10000.000 0.000 -1.329
134 402.00 1500.02 190 489 0.740 10000.000 0.000 -1.329
135 405.00 1500.02 180 514 0.740 10000.000 0.000 -1.329
136 408.00 1500.02 227 502 0.740 10000.000 0.000 -1.329
137 411.00 1500.02 196 537 0.740 10000.000 0.000 -1.329
138 414.00 1500.02 215 552 0.740 10000.000 0.000 -1.329
139 417.00 1500.02 259 538 0.740 10000.000 0.000 -1.329
140 420.00 1500.02 208 592 0.740 10000.000 0.000 -1.329
141 423.00 1500.02 209 644 0.740 10000.000 0.000 -1.329
142 426.00 1500.02 225 602 0.740 10000.000 0.000 -1.329
143 429.00 1500.02 200 569 0.740 10000.000 0.000 -1.329
144 432.00 1500.02 199 609 0.740 10000.000 0.000 -1.329
