# BinNR microsec tot-time (s)  O-Beam AUX Ampl(V) f(Hz) phase(deg) chi(pos)
0 0.00 1500.02 81 246 0.740 10000.000 0.000 -0.681
1 3.00 1500.02 192 473 0.740 10000.000 0.000 -0.681
2 6.00 1500.02 200 496 0.740 10000.000 0.000 -0.681
3 9.00 1500.02 196 460 0.740 10000.000 0.000 -0.681
4 12.00 1500.02 216 473 0.740 10000.000 0.000 -0.681
5 15.00 1500.02 219 476 0.740 10000.000 0.000 -0.681
6 18.00 1500.02 208 509 0.740 10000.000 0.000 -0.681
7 21.00 1500.02 248 566 0.740 10000.000 0.000 -0.681
8 24.00 1500.02 218 571 0.740 10000.000 0.000 -0.681
9 27.00 1500.02 221 586 0.740 10000.000 0.000 -0.681
10 30.00 1500.02 220 542 0.740 10000.000 0.000 -0.681
11 33.00 1500.02 219 511 0.740 10000.000 0.000 -0.681
12 36.00 1500.02 245 581 0.740 10000.000 0.000 -0.681
13 39.00 1500.02 218 540 0.740 10000.000 0.000 -0.681
14 42.00 1500.02 238 511 0.740 10000.000 0.000 -0.681
15 45.00 1500.02 241 461 0.740 10000.000 0.000 -0.681
16 48.00 1500.02 233 497 0.740 10000.000 0.000 -0.681
17 51.00 1500.02 208 488 0.740 10000.000 0.000 -0.681
18 54.00 1500.02 218 504 0.740 10000.000 0.000 -0.681
19 57.00 1500.02 191 478 0.740 10000.000 0.000 -0.681
20 60.00 1500.02 194 466 0.740 10000.000 0.000 -0.681
21 63.00 1500.02 206 495 0.740 10000.000 0.000 -0.681
22 66.00 1500.02 224 516 0.740 10000.000 0.000 -0.681
23 69.00 1500.02 178 491 0.740 10000.000 0.000 -0.681
24 72.00 1500.02 188 515 0.740 10000.000 0.000 -0.681
25 75.00 1500.02 183 542 0.740 10000.000 0.000 -0.681
26 78.00 1500.02 185 518 0.740 10000.000 0.000 -0.681
27 81.00 1500.02 211 603 0.740 10000.000 0.000 -0.681
28 84.00 1500.02 180 588 0.740 10000.000 0.000 -0.681
29 87.00 1500.02 163 581 0.740 10000.000 0.000 -0.681
30 90.00 1500.02 208 623 0.740 10000.000 0.000 -0.681
31 93.00 1500.02 194 595 0.740 10000.000 0.000 -0.681
32 96.00 1500.02 187 590 0.740 10000.000 0.000 -0.681
33 99.00 1500.02 198 612 0.740 10000.000 0.000 -0.681
34 102.00 1500.02 163 620 0.740 10000.000 0.000 -0.681
35 105.00 1500.02 201 580 0.740 10000.000 0.000 -0.681
36 108.00 1500.02 221 595 0.740 10000.000 0.000 -0.681
37 111.00 1500.02 202 578 0.740 10000.000 0.000 -0.681
38 114.00 1500.02 205 556 0.740 10000.000 0.000 -0.681
39 117.00 1500.02 237 518 0.740 10000.000 0.000 -0.681
40 120.00 1500.02 218 534 0.740 10000.000 0.000 -0.681
41 123.00 1500.02 241 529 0.740 10000.000 0.000 -0.681
42 126.00 1500.02 241 541 0.740 10000.000 0.000 -0.681
43 129.00 1500.02 222 469 0.740 10000.000 0.000 -0.681
44 132.00 1500.02 227 491 0.740 10000.000 0.000 -0.681
45 135.00 1500.02 195 502 0.740 10000.000 0.000 -0.681
46 138.00 1500.02 208 443 0.740 10000.000 0.000 -0.681
47 141.00 1500.02 234 461 0.740 10000.000 0.000 -0.681
48 144.00 1500.02 241 448 0.740 10000.000 0.000 -0.681
49 147.00 1500.02 222 436 0.740 10000.000 0.000 -0.681
50 150.00 1500.02 199 475 0.740 10000.000 0.000 -0.681
51 153.00 1500.02 210 417 0.740 10000.000 0.000 -0.681
52 156.00 1500.02 220 462 0.740 10000.000 0.000 -0.681
53 159.00 1500.02 207 482 0.740 10000.000 0.000 -0.681
54 162.00 1500.02 188 516 0.740 10000.000 0.000 -0.681
55 165.00 1500.02 191 470 0.740 10000.000 0.000 -0.681
56 168.00 1500.02 225 492 0.740 10000.000 0.000 -0.681
57 171.00 1500.02 184 526 0.740 10000.000 0.000 -0.681
58 174.00 1500.02 199 550 0.740 10000.000 0.000 -0.681
59 177.00 1500.02 182 536 0.740 10000.000 0.000 -0.681
60 180.00 1500.02 206 525 0.740 10000.000 0.000 -0.681
61 183.00 1500.02 199 546 0.740 10000.000 0.000 -0.681
62 186.00 1500.02 166 579 0.740 10000.000 0.000 -0.681
63 189.00 1500.02 182 574 0.740 10000.000 0.000 -0.681
64 192.00 1500.02 190 611 0.740 10000.000 0.000 -0.681
65 195.00 1500.02 204 582 0.740 10000.000 0.000 -0.681
66 198.00 1500.02 189 610 0.740 10000.000 0.000 -0.681
67 201.00 1500.02 189 576 0.740 10000.000 0.000 -0.681
68 204.00 1500.02 197 599 0.740 10000.000 0.000 -0.681
69 207.00 1500.02 188 577 0.740 10000.000 0.000 -0.681
70 210.00 1500.02 203 608 0.740 10000.000 0.000 -0.681
71 213.00 1500.02 219 563 0.740 10000.000 0.000 -0.681
72 216.00 1500.02 224 586 0.740 10000.000 0.000 -0.681
73 219.00 1500.02 190 537 0.740 10000.000 0.000 -0.681
74 222.00 1500.02 243 515 0.740 10000.000 0.000 -0.681
75 225.00 1500.02 210 492 0.740 10000.000 0.000 -0.681
76 228.00 1500.02 221 535 0.740 10000.000 0.000 -0.681
77 231.00 1500.02 229 464 0.740 10000.000 0.000 -0.681
78 234.00 1500.02 222 486 0.740 10000.000 0.000 -0.681
79 237.00 1500.02 231 479 0.740 10000.000 0.000 -0.681
80 240.00 1500.02 231 447 0.740 10000.000 0.000 -0.681
81 243.00 1500.02 243 451 0.740 10000.000 0.000 -0.681
82 246.00 1500.02 216 434 0.740 10000.000 0.000 -0.681
83 249.00 1500.02 223 421 0.740 10000.000 0.000 -0.681
84 252.00 1500.02 216 501 0.740 10000.000 0.000 -0.681
85 255.00 1500.02 202 441 0.740 10000.000 0.000 -0.681
86 258.00 1500.02 222 469 0.740 10000.000 0.000 -0.681
87 261.00 1500.02 215 515 0.740 10000.000 0.000 -0.681
88 264.00 1500.02 211 482 0.740 10000.000 0.000 -0.681
89 267.00 1500.02 193 454 0.740 10000.000 0.000 -0.681
90 270.00 1500.02 203 541 0.740 10000.000 0.000 -0.681
91 273.00 1500.02 186 535 0.740 10000.000 0.000 -0.681
92 276.00 1500.02 182 530 0.740 10000.000 0.000 -0.681
93 279.00 1500.02 206 569 0.740 10000.000 0.000 -0.681
94 282.00 1500.02 166 610 0.740 10000.000 0.000 -0.681
95 285.00 1500.02 180 577 0.740 10000.000 0.000 -0.681
96 288.00 1500.02 187 587 0.740 10000.000 0.000 -0.681
97 291.00 1500.02 191 570 0.740 10000.000 0.000 -0.681
98 294.00 1500.02 214 602 0.740 10000.000 0.000 -0.681
99 297.00 1500.02 218 632 0.740 10000.000 0.000 -0.681
100 300.00 1500.02 200 600 0.740 10000.000 0.000 -0.681
101 303.00 1500.02 212 591 0.740 10000.000 0.000 -0.681
102 306.00 1500.02 242 630 0.740 10000.000 0.000 -0.681
103 309.00 1500.02 220 571 0.740 10000.000 0.000 -0.681
104 312.00 1500.02 186 539 0.740 10000.000 0.000 -0.681
105 315.00 1500.02 201 548 0.740 10000.000 0.000 -0.681
106 318.00 1500.02 209 594 0.740 10000.000 0.000 -0.681
107 321.00 1500.02 175 516 0.740 10000.000 0.000 -0.681
108 324.00 1500.02 181 470 0.740 10000.000 0.000 -0.681
109 327.00 1500.02 210 531 0.740 10000.000 0.000 -0.681
110 330.00 1500.02 197 485 0.740 10000.000 0.000 -0.681
111 333.00 1500.02 183 522 0.740 10000.000 0.000 -0.681
112 336.00 1500.02 191 493 0.740 10000.000 0.000 -0.681
113 339.00 1500.02 209 472 0.740 10000.000 0.000 -0.681
114 342.00 1500.02 238 471 0.740 10000.000 0.000 -0.681
115 345.00 1500.02 207 457 0.740 10000.000 0.000 -0.681
116 348.00 1500.02 216 435 0.740 10000.000 0.000 -0.681
117 351.00 1500.02 216 430 0.740 10000.000 0.000 -0.681
118 354.00 1500.02 250 477 0.740 10000.000 0.000 -0.681
119 357.00 1500.02 250 492 0.740 10000.000 0.000 -0.681
120 360.00 1500.02 207 530 0.740 10000.000 0.000 -0.681
121 363.00 1500.02 226 504 0.740 10000.000 0.000 -0.681
122 366.00 1500.02 227 528 0.740 10000.000 0.000 -0.681
123 369.00 1500.02 250 528 0.740 10000.000 0.000 -0.681
124 372.00 1500.02 206 527 0.740 10000.000 0.000 -0.681
125 375.00 1500.02 211 518 0.740 10000.000 0.000 -0.681
126 378.00 1500.02 236 569 0.740 10000.000 0.000 -0.681
127 381.00 1500.02 207 579 0.740 10000.000 0.000 -0.681
128 384.00 1500.02 213 611 0.740 10000.000 0.000 -0.681
129 387.00 1500.02 213 581 0.740 10000.000 0.000 -0.681
130 390.00 1500.02 226 615 0.740 10000.000 0.000 -0.681
131 393.00 1500.02 189 598 0.740 10000.000 0.000 -0.681
132 396.00 1500.02 223 631 0.740 10000.000 0.000 -0.681
133 399.00 1500.02 209 614 0.740 10000.000 0.000 -0.681
134 402.00 1500.02 192 615 0.740 10000.000 0.000 -0.681
135 405.00 1500.02 184 568 0.740 10000.000 0.000 -0.681
136 408.00 1500.02 220 618 0.740 10000.000 0.000 -0.681
137 411.00 1500.02 202 582 0.740 10000.000 0.000 -0.681
138 414.00 1500.02 182 556 0.740 10000.000 0.000 -0.681
139 417.00 1500.02 171 555 0.740 10000.000 0.000 -0.681
140 420.00 1500.02 198 554 0.740 10000.000 0.000 -0.681
141 423.00 1500.02 177 504 0.740 10000.000 0.000 -0.681
142 426.00 1500.02 202 553 0.740 10000.000 0.000 -0.681
143 429.00 1500.02 193 470 0.740 10000.000 0.000 -0.681
144 432.00 1500.02 218 454 0.740 10000.000 0.000 -0.681
