# BinNR microsec tot-time (s)  O-Beam AUX Ampl(V) f(Hz) phase(deg) chi(pos)
0 0.00 1500.00 120 305 0.740 10000.000 0.000 -1.000
1 3.00 1500.00 262 673 0.740 10000.000 0.000 -1.000
2 6.00 1500.00 252 643 0.740 10000.000 0.000 -1.000
3 9.00 1500.00 240 688 0.740 10000.000 0.000 -1.000
4 12.00 1500.00 257 638 0.740 10000.000 0.000 -1.000
5 15.00 1500.00 248 700 0.740 10000.000 0.000 -1.000
6 18.00 1500.00 233 700 0.740 10000.000 0.000 -1.000
7 21.00 1500.00 237 658 0.740 10000.000 0.000 -1.000
8 24.00 1500.00 256 725 0.740 10000.000 0.000 -1.000
9 27.00 1500.00 286 655 0.740 10000.000 0.000 -1.000
10 30.00 1500.00 240 759 0.740 10000.000 0.000 -1.000
11 33.00 1500.00 237 708 0.740 10000.000 0.000 -1.000
12 36.00 1500.00 252 699 0.740 10000.000 0.000 -1.000
13 39.00 1500.00 222 730 0.740 10000.000 0.000 -1.000
14 42.00 1500.00 259 704 0.740 10000.000 0.000 -1.000
15 45.00 1500.00 215 692 0.740 10000.000 0.000 -1.000
16 48.00 1500.00 245 654 0.740 10000.000 0.000 -1.000
17 51.00 1500.00 243 667 0.740 10000.000 0.000 -1.000
18 54.00 1500.00 218 702 0.740 10000.000 0.000 -1.000
19 57.00 1500.00 264 671 0.740 10000.000 0.000 -1.000
20 60.00 1500.00 261 679 0.740 10000.000 0.000 -1.000
21 63.00 1500.00 233 691 0.740 10000.000 0.000 -1.000
22 66.00 1500.00 234 686 0.740 10000.000 0.000 -1.000
23 69.00 1500.00 240 756 0.740 10000.000 0.000 -1.000
24 72.00 1500.00 242 734 0.740 10000.000 0.000 -1.000
25 75.00 1500.00 265 658 0.740 10000.000 0.000 -1.000
26 78.00 1500.00 250 695 0.740 10000.000 0.000 -1.000
27 81.00 1500.00 240 649 0.740 10000.000 0.000 -1.000
28 84.00 1500.00 276 722 0.740 10000.000 0.000 -1.000
29 87.00 1500.00 262 683 0.740 10000.000 0.000 -1.000
30 90.00 1500.00 244 717 0.740 10000.000 0.000 -1.000
31 93.00 1500.00 246 699 0.740 10000.000 0.000 -1.000
32 96.00 1500.00 241 707 0.740 10000.000 0.000 -1.000
33 99.00 1500.00 233 709 0.740 10000.000 0.000 -1.000
34 102.00 1500.00 242 703 0.740 10000.000 0.000 -1.000
35 105.00 1500.00 250 712 0.740 10000.000 0.000 -1.000
36 108.00 1500.00 256 655 0.740 10000.000 0.000 -1.000
37 111.00 1500.00 244 660 0.740 10000.000 0.000 -1.000
38 114.00 1500.00 228 709 0.740 10000.000 0.000 -1.000
39 117.00 1500.00 238 690 0.740 10000.000 0.000 -1.000
40 120.00 1500.00 249 747 0.740 10000.000 0.000 -1.000
41 123.00 1500.00 250 641 0.740 10000.000 0.000 -1.000
42 126.00 1500.00 240 714 0.740 10000.000 0.000 -1.000
43 129.00 1500.00 241 657 0.740 10000.000 0.000 -1.000
44 132.00 1500.00 249 701 0.740 10000.000 0.000 -1.000
45 135.00 1500.00 251 699 0.740 10000.000 0.000 -1.000
46 138.00 1500.00 253 708 0.740 10000.000 0.000 -1.000
47 141.00 1500.00 239 650 0.740 10000.000 0.000 -1.000
48 144.00 1500.00 215 664 0.740 10000.000 0.000 -1.000
49 147.00 1500.00 244 638 0.740 10000.000 0.000 -1.000
50 150.00 1500.00 230 703 0.740 10000.000 0.000 -1.000
51 153.00 1500.00 250 676 0.740 10000.000 0.000 -1.000
52 156.00 1500.00 222 684 0.740 10000.000 0.000 -1.000
53 159.00 1500.00 240 691 0.740 10000.000 0.000 -1.000
54 162.00 1500.00 251 688 0.740 10000.000 0.000 -1.000
55 165.00 1500.00 234 691 0.740 10000.000 0.000 -1.000
56 168.00 1500.00 254 718 0.740 10000.000 0.000 -1.000
57 171.00 1500.00 229 674 0.740 10000.000 0.000 -1.000
58 174.00 1500.00 239 678 0.740 10000.000 0.000 -1.000
59 177.00 1500.00 219 698 0.740 10000.000 0.000 -1.000
60 180.00 1500.00 234 717 0.740 10000.000 0.000 -1.000
61 183.00 1500.00 271 688 0.740 10000.000 0.000 -1.000
62 186.00 1500.00 245 677 0.740 10000.000 0.000 -1.000
63 189.00 1500.00 234 690 0.740 10000.000 0.000 -1.000
64 192.00 1500.00 253 702 0.740 10000.000 0.000 -1.000
65 195.00 1500.00 231 660 0.740 10000.000 0.000 -1.000
66 198.00 1500.00 234 719 0.740 10000.000 0.000 -1.000
67 201.00 1500.00 267 701 0.740 10000.000 0.000 -1.000
68 204.00 1500.00 240 709 0.740 10000.000 0.000 -1.000
69 207.00 1500.00 253 731 0.740 10000.000 0.000 -1.000
70 210.00 1500.00 243 710 0.740 10000.000 0.000 -1.000
71 213.00 1500.00 226 686 0.740 10000.000 0.000 -1.000
72 216.00 1500.00 266 694 0.740 10000.000 0.000 -1.000
73 219.00 1500.00 248 673 0.740 10000.000 0.000 -1.000
74 222.00 1500.00 244 673 0.740 10000.000 0.000 -1.000
75 225.00 1500.00 221 765 0.740 10000.000 0.000 -1.000
76 228.00 1500.00 238 708 0.740 10000.000 0.000 -1.000
77 231.00 1500.00 225 715 0.740 10000.000 0.000 -1.000
78 234.00 1500.00 223 724 0.740 10000.000 0.000 -1.000
79 237.00 1500.00 235 734 0.740 10000.000 0.000 -1.000
80 240.00 1500.00 242 638 0.740 10000.000 0.000 -1.000
81 243.00 1500.00 261 677 0.740 10000.000 0.000 -1.000
82 246.00 1500.00 232 665 0.740 10000.000 0.000 -1.000
83 249.00 1500.00 240 667 0.740 10000.000 0.000 -1.000
84 252.00 1500.00 260 688 0.740 10000.000 0.000 -1.000
85 255.00 1500.00 239 701 0.740 10000.000 0.000 -1.000
86 258.00 1500.00 248 726 0.740 10000.000 0.000 -1.000
87 261.00 1500.00 222 677 0.740 10000.000 0.000 -1.000
88 264.00 1500.00 260 684 0.740 10000.000 0.000 -1.000
89 267.00 1500.00 251 741 0.740 10000.000 0.000 -1.000
90 270.00 1500.00 250 721 0.740 10000.000 0.000 -1.000
91 273.00 1500.00 234 675 0.740 10000.000 0.000 -1.000
92 276.00 1500.00 231 702 0.740 10000.000 0.000 -1.000
93 279.00 1500.00 222 724 0.740 10000.000 0.000 -1.000
94 282.00 1500.00 245 697 0.740 10000.000 0.000 -1.000
95 285.00 1500.00 253 658 0.740 10000.000 0.000 -1.000
96 288.00 1500.00 262 659 0.740 10000.000 0.000 -1.000
97 291.00 1500.00 258 652 0.740 10000.000 0.000 -1.000
98 294.00 1500.00 220 660 0.740 10000.000 0.000 -1.000
99 297.00 1500.00 218 728 0.740 10000.000 0.000 -1.000
100 300.00 1500.00 256 714 0.740 10000.000 0.000 -1.000
101 303.00 1500.00 284 696 0.740 10000.000 0.000 -1.000
102 306.00 1500.00 247 684 0.740 10000.000 0.000 -1.000
103 309.00 1500.00 236 693 0.740 10000.000 0.000 -1.000
104 312.00 1500.00 239 734 0.740 10000.000 0.000 -1.000
105 315.00 1500.00 245 666 0.740 10000.000 0.000 -1.000
106 318.00 1500.00 247 708 0.740 10000.000 0.000 -1.000
107 321.00 1500.00 263 703 0.740 10000.000 0.000 -1.000
108 324.00 1500.00 274 672 0.740 10000.000 0.000 -1.000
109 327.00 1500.00 243 662 0.740 10000.000 0.000 -1.000
110 330.00 1500.00 232 725 0.740 10000.000 0.000 -1.000
111 333.00 1500.00 238 725 0.740 10000.000 0.000 -1.000
112 336.00 1500.00 286 660 0.740 10000.000 0.000 -1.000
113 339.00 1500.00 239 680 0.740 10000.000 0.000 -1.000
114 342.00 1500.00 232 675 0.740 10000.000 0.000 -1.000
115 345.00 1500.00 257 686 0.740 10000.000 0.000 -1.000
116 348.00 1500.00 231 644 0.740 10000.000 0.000 -1.000
117 351.00 1500.00 223 665 0.740 10000.000 0.000 -1.000
118 354.00 1500.00 237 694 0.740 10000.000 0.000 -1.000
119 357.00 1500.00 246 694 0.740 10000.000 0.000 -1.000
120 360.00 1500.00 270 671 0.740 10000.000 0.000 -1.000
121 363.00 1500.00 217 702 0.740 10000.000 0.000 -1.000
122 366.00 1500.00 224 682 0.740 10000.000 0.000 -1.000
123 369.00 1500.00 236 693 0.740 10000.000 0.000 -1.000
124 372.00 1500.00 256 720 0.740 10000.000 0.000 -1.000
125 375.00 1500.00 220 688 0.740 10000.000 0.000 -1.000
126 378.00 1500.00 229 754 0.740 10000.000 0.000 -1.000
127 381.00 1500.00 241 674 0.740 10000.000 0.000 -1.000
128 384.00 1500.00 243 705 0.740 10000.000 0.000 -1.000
129 387.00 1500.00 277 639 0.740 10000.000 0.000 -1.000
130 390.00 1500.00 261 668 0.740 10000.000 0.000 -1.000
131 393.00 1500.00 228 744 0.740 10000.000 0.000 -1.000
132 396.00 1500.00 233 655 0.740 10000.000 0.000 -1.000
133 399.00 1500.00 215 755 0.740 10000.000 0.000 -1.000
134 402.00 1500.00 240 689 0.740 10000.000 0.000 -1.000
135 405.00 1500.00 243 671 0.740 10000.000 0.000 -1.000
136 408.00 1500.00 256 753 0.740 10000.000 0.000 -1.000
137 411.00 1500.00 211 679 0.740 10000.000 0.000 -1.000
138 414.00 1500.00 238 660 0.740 10000.000 0.000 -1.000
139 417.00 1500.00 248 727 0.740 10000.000 0.000 -1.000
140 420.00 1500.00 246 721 0.740 10000.000 0.000 -1.000
141 423.00 1500.00 269 730 0.740 10000.000 0.000 -1.000
142 426.00 1500.00 244 715 0.740 10000.000 0.000 -1.000
143 429.00 1500.00 247 685 0.740 10000.000 0.000 -1.000
144 432.00 1500.00 242 695 0.740 10000.000 0.000 -1.000
