# BinNR microsec tot-time (s)  O-Beam AUX Ampl(V) f(Hz) phase(deg) chi(pos)
0 0.00 1500.00 99 240 0.740 10000.000 0.000 1.318
1 3.00 1500.00 235 518 0.740 10000.000 0.000 1.318
2 6.00 1500.00 217 521 0.740 10000.000 0.000 1.318
3 9.00 1500.00 214 527 0.740 10000.000 0.000 1.318
4 12.00 1500.00 227 510 0.740 10000.000 0.000 1.318
5 15.00 1500.00 229 579 0.740 10000.000 0.000 1.318
6 18.00 1500.00 235 550 0.740 10000.000 0.000 1.318
7 21.00 1500.00 214 561 0.740 10000.000 0.000 1.318
8 24.00 1500.00 225 575 0.740 10000.000 0.000 1.318
9 27.00 1500.00 231 587 0.740 10000.000 0.000 1.318
10 30.00 1500.00 232 595 0.740 10000.000 0.000 1.318
11 33.00 1500.00 232 590 0.740 10000.000 0.000 1.318
12 36.00 1500.00 231 613 0.740 10000.000 0.000 1.318
13 39.00 1500.00 246 546 0.740 10000.000 0.000 1.318
14 42.00 1500.00 209 521 0.740 10000.000 0.000 1.318
15 45.00 1500.00 227 543 0.740 10000.000 0.000 1.318
16 48.00 1500.00 207 538 0.740 10000.000 0.000 1.318
17 51.00 1500.00 207 519 0.740 10000.000 0.000 1.318
18 54.00 1500.00 215 530 0.740 10000.000 0.000 1.318
19 57.00 1500.00 233 548 0.740 10000.000 0.000 1.318
20 60.00 1500.00 210 534 0.740 10000.000 0.000 1.318
21 63.00 1500.00 203 534 0.740 10000.000 0.000 1.318
22 66.00 1500.00 225 532 0.740 10000.000 0.000 1.318
23 69.00 1500.00 228 515 0.740 10000.000 0.000 1.318
24 72.00 1500.00 225 569 0.740 10000.000 0.000 1.318
25 75.00 1500.00 229 572 0.740 10000.000 0.000 1.318
26 78.00 1500.00 211 615 0.740 10000.000 0.000 1.318
27 81.00 1500.00 202 597 0.740 10000.000 0.000 1.318
28 84.00 1500.00 217 641 0.740 10000.000 0.000 1.318
29 87.00 1500.00 207 611 0.740 10000.000 0.000 1.318
30 90.00 1500.00 202 648 0.740 10000.000 0.000 1.318
31 93.00 1500.00 223 631 0.740 10000.000 0.000 1.318
32 96.00 1500.00 203 615 0.740 10000.000 0.000 1.318
33 99.00 1500.00 212 609 0.740 10000.000 0.000 1.318
34 102.00 1500.00 195 634 0.740 10000.000 0.000 1.318
35 105.00 1500.00 190 624 0.740 10000.000 0.000 1.318
36 108.00 1500.00 220 639 0.740 10000.000 0.000 1.318
37 111.00 1500.00 214 591 0.740 10000.000 0.000 1.318
38 114.00 1500.00 263 653 0.740 10000.000 0.000 1.318
39 117.00 1500.00 254 633 0.740 10000.000 0.000 1.318
40 120.00 1500.00 228 598 0.740 10000.000 0.000 1.318
41 123.00 1500.00 213 583 0.740 10000.000 0.000 1.318
42 126.00 1500.00 224 535 0.740 10000.000 0.000 1.318
43 129.00 1500.00 210 573 0.740 10000.000 0.000 1.318
44 132.00 1500.00 249 525 0.740 10000.000 0.000 1.318
45 135.00 1500.00 237 470 0.740 10000.000 0.000 1.318
46 138.00 1500.00 228 565 0.740 10000.000 0.000 1.318
47 141.00 1500.00 226 498 0.740 10000.000 0.000 1.318
48 144.00 1500.00 244 491 0.740 10000.000 0.000 1.318
49 147.00 1500.00 214 478 0.740 10000.000 0.000 1.318
50 150.00 1500.00 232 504 0.740 10000.000 0.000 1.318
51 153.00 1500.00 231 475 0.740 10000.000 0.000 1.318
52 156.00 1500.00 219 520 0.740 10000.000 0.000 1.318
53 159.00 1500.00 207 517 0.740 10000.000 0.000 1.318
54 162.00 1500.00 201 518 0.740 10000.000 0.000 1.318
55 165.00 1500.00 226 527 0.740 10000.000 0.000 1.318
56 168.00 1500.00 214 537 0.740 10000.000 0.000 1.318
57 171.00 1500.00 234 573 0.740 10000.000 0.000 1.318
58 174.00 1500.00 197 578 0.740 10000.000 0.000 1.318
59 177.00 1500.00 196 582 0.740 10000.000 0.000 1.318
60 180.00 1500.00 180 591 0.740 10000.000 0.000 1.318
61 183.00 1500.00 210 609 0.740 10000.000 0.000 1.318
62 186.00 1500.00 209 627 0.740 10000.000 0.000 1.318
63 189.00 1500.00 234 583 0.740 10000.000 0.000 1.318
64 192.00 1500.00 192 613 0.740 10000.000 0.000 1.318
65 195.00 1500.00 201 646 0.740 10000.000 0.000 1.318
66 198.00 1500.00 196 656 0.740 10000.000 0.000 1.318
67 201.00 1500.00 197 590 0.740 10000.000 0.000 1.318
68 204.00 1500.00 221 672 0.740 10000.000 0.000 1.318
69 207.00 1500.00 230 632 0.740 10000.000 0.000 1.318
70 210.00 1500.00 260 645 0.740 10000.000 0.000 1.318
71 213.00 1500.00 211 602 0.740 10000.000 0.000 1.318
72 216.00 1500.00 245 596 0.740 10000.000 0.000 1.318
73 219.00 1500.00 233 600 0.740 10000.000 0.000 1.318
74 222.00 1500.00 230 590 0.740 10000.000 0.000 1.318
75 225.00 1500.00 202 529 0.740 10000.000 0.000 1.318
76 228.00 1500.00 241 544 0.740 10000.000 0.000 1.318
77 231.00 1500.00 223 516 0.740 10000.000 0.000 1.318
78 234.00 1500.00 220 524 0.740 10000.000 0.000 1.318
79 237.00 1500.00 221 504 0.740 10000.000 0.000 1.318
80 240.00 1500.00 218 505 0.740 10000.000 0.000 1.318
81 243.00 1500.00 197 490 0.740 10000.000 0.000 1.318
82 246.00 1500.00 236 517 0.740 10000.000 0.000 1.318
83 249.00 1500.00 237 522 0.740 10000.000 0.000 1.318
84 252.00 1500.00 199 525 0.740 10000.000 0.000 1.318
85 255.00 1500.00 226 500 0.740 10000.000 0.000 1.318
86 258.00 1500.00 211 501 0.740 10000.000 0.000 1.318
87 261.00 1500.00 202 518 0.740 10000.000 0.000 1.318
88 264.00 1500.00 216 539 0.740 10000.000 0.000 1.318
89 267.00 1500.00 214 501 0.740 10000.000 0.000 1.318
90 270.00 1500.00 219 605 0.740 10000.000 0.000 1.318
91 273.00 1500.00 225 622 0.740 10000.000 0.000 1.318
92 276.00 1500.00 204 597 0.740 10000.000 0.000 1.318
93 279.00 1500.00 198 598 0.740 10000.000 0.000 1.318
94 282.00 1500.00 226 617 0.740 10000.000 0.000 1.318
95 285.00 1500.00 208 640 0.740 10000.000 0.000 1.318
96 288.00 1500.00 200 661 0.740 10000.000 0.000 1.318
97 291.00 1500.00 217 629 0.740 10000.000 0.000 1.318
98 294.00 1500.00 228 656 0.740 10000.000 0.000 1.318
99 297.00 1500.00 215 636 0.740 10000.000 0.000 1.318
100 300.00 1500.00 239 637 0.740 10000.000 0.000 1.318
101 303.00 1500.00 198 624 0.740 10000.000 0.000 1.318
102 306.00 1500.00 239 636 0.740 10000.000 0.000 1.318
103 309.00 1500.00 202 590 0.740 10000.000 0.000 1.318
104 312.00 1500.00 252 627 0.740 10000.000 0.000 1.318
105 315.00 1500.00 234 594 0.740 10000.000 0.000 1.318
106 318.00 1500.00 200 600 0.740 10000.000 0.000 1.318
107 321.00 1500.00 210 583 0.740 10000.000 0.000 1.318
108 324.00 1500.00 217 559 0.740 10000.000 0.000 1.318
109 327.00 1500.00 189 581 0.740 10000.000 0.000 1.318
110 330.00 1500.00 212 579 0.740 10000.000 0.000 1.318
111 333.00 1500.00 192 547 0.740 10000.000 0.000 1.318
112 336.00 1500.00 198 486 0.740 10000.000 0.000 1.318
113 339.00 1500.00 237 472 0.740 10000.000 0.000 1.318
114 342.00 1500.00 223 478 0.740 10000.000 0.000 1.318
115 345.00 1500.00 221 491 0.740 10000.000 0.000 1.318
116 348.00 1500.00 225 520 0.740 10000.000 0.000 1.318
117 351.00 1500.00 215 506 0.740 10000.000 0.000 1.318
118 354.00 1500.00 198 554 0.740 10000.000 0.000 1.318
119 357.00 1500.00 237 488 0.740 10000.000 0.000 1.318
120 360.00 1500.00 202 513 0.740 10000.000 0.000 1.318
121 363.00 1500.00 231 523 0.740 10000.000 0.000 1.318
122 366.00 1500.00 229 548 0.740 10000.000 0.000 1.318
123 369.00 1500.00 218 555 0.740 10000.000 0.000 1.318
124 372.00 1500.00 223 576 0.740 10000.000 0.000 1.318
125 375.00 1500.00 235 589 0.740 10000.000 0.000 1.318
126 378.00 1500.00 239 599 0.740 10000.000 0.000 1.318
127 381.00 1500.00 252 661 0.740 10000.000 0.000 1.318
128 384.00 1500.00 235 603 0.740 10000.000 0.000 1.318
129 387.00 1500.00 207 608 0.740 10000.000 0.000 1.318
130 390.00 1500.00 196 653 0.740 10000.000 0.000 1.318
131 393.00 1500.00 232 579 0.740 10000.000 0.000 1.318
132 396.00 1500.00 220 657 0.740 10000.000 0.000 1.318
133 399.00 1500.00 223 594 0.740 10000.000 0.000 1.318
134 402.00 1500.00 210 661 0.740 10000.000 0.000 1.318
135 405.00 1500.00 230 617 0.740 10000.000 0.000 1.318
136 408.00 1500.00 186 604 0.740 10000.000 0.000 1.318
137 411.00 1500.00 213 617 0.740 10000.000 0.000 1.318
138 414.00 1500.00 210 581 0.740 10000.000 0.000 1.318
139 417.00 1500.00 211 559 0.740 10000.000 0.000 1.318
140 420.00 1500.00 227 595 0.740 10000.000 0.000 1.318
141 423.00 1500.00 222 567 0.740 10000.000 0.000 1.318
142 426.00 1500.00 185 532 0.740 10000.000 0.000 1.318
143 429.00 1500.00 196 545 0.740 10000.000 0.000 1.318
144 432.00 1500.00 228 560 0.740 10000.000 0.000 1.318
