Scan on 31/01/2025@10:03 | Measure Time (sec):60| Bg detector (cnts/sec):0.000000| Bg monitor (cnts/sec):0.00000060| Mon.lim.  (cnts/sec):  0
Ioff (cnts/sec): 0.103026   ErrIoff: 0.000826  Pp.d.Pa:  0.000000  ErrPp.d.Pal:  0.000000	Pol: 0.000000	ErrPol: 0.000000
Power Supply 1 (mA): OFF| Power Supply 2 (mA): OFF| Power Supply 3 (mA): OFF| Power Supply 4 (mA): OFF| Power Supply 5 (mA): OFF| Power Supply 6 (mA): OFF   
I Scan (mA):  Detector (cnts):   Monitor_Max,Min (cnts/sec):   Norm(1/s):   err(1/s) :     FlippRatio:     ErrFlippRatio        
-2800.00000000	10002.00000000	431.00000000	318.00000000	0.45800898	0.00552982	0.22494400	0.00326061
-2400.00000000	11716.00000000	419.00000000	317.00000000	0.53583352	0.00613497	0.19227309	0.00268789
-2000.00000000	11254.00000000	411.00000000	315.00000000	0.50819598	0.00588311	0.20272960	0.00285520
-1600.00000000	9765.00000000	415.00000000	314.00000000	0.44875919	0.00546607	0.22958052	0.00334827
-1200.00000000	6776.00000000	415.00000000	328.00000000	0.30865941	0.00428949	0.33378659	0.00535590
-800.00000000	3679.00000000	413.00000000	311.00000000	0.16871503	0.00300707	0.61065317	0.01193527
-400.00000000	1236.00000000	399.00000000	320.00000000	0.05654680	0.00165327	1.82196634	0.05523745
0.00000000	306.00000000	409.00000000	318.00000000	0.01400650	0.00080629	7.35561146	0.42751770
400.00000000	1082.00000000	415.00000000	322.00000000	0.04921537	0.00153257	2.09337777	0.06731565
800.00000000	3439.00000000	412.00000000	322.00000000	0.15566016	0.00285349	0.66186728	0.01324370
1200.00000000	6655.00000000	393.00000000	315.00000000	0.30642785	0.00429336	0.33621739	0.00542808
1600.00000000	9651.00000000	409.00000000	328.00000000	0.43685497	0.00533037	0.23583655	0.00344370
2000.00000000	11471.00000000	397.00000000	317.00000000	0.52460441	0.00604797	0.19638869	0.00275818
2400.00000000	11964.00000000	430.00000000	319.00000000	0.53860352	0.00610793	0.19128425	0.00265700
2800.00000000	10253.00000000	414.00000000	322.00000000	0.46757570	0.00559405	0.22034158	0.00317380
