# BinNR microsec tot-time (s)  O-Beam AUX Ampl(V) f(Hz) phase(deg) chi(pos)
0 0.00 1500.00 138 430 1.520 10000.000 0.000 -0.505
1 3.00 1500.00 288 775 1.520 10000.000 0.000 -0.505
2 6.00 1500.00 348 828 1.520 10000.000 0.000 -0.505
3 9.00 1500.00 326 823 1.520 10000.000 0.000 -0.505
4 12.00 1500.00 345 917 1.520 10000.000 0.000 -0.505
5 15.00 1500.00 297 870 1.520 10000.000 0.000 -0.505
6 18.00 1500.00 357 1009 1.520 10000.000 0.000 -0.505
7 21.00 1500.00 347 1011 1.520 10000.000 0.000 -0.505
8 24.00 1500.00 403 980 1.520 10000.000 0.000 -0.505
9 27.00 1500.00 395 1099 1.520 10000.000 0.000 -0.505
10 30.00 1500.00 456 1134 1.520 10000.000 0.000 -0.505
11 33.00 1500.00 399 1041 1.520 10000.000 0.000 -0.505
12 36.00 1500.00 415 1172 1.520 10000.000 0.000 -0.505
13 39.00 1500.00 397 1105 1.520 10000.000 0.000 -0.505
14 42.00 1500.00 409 1064 1.520 10000.000 0.000 -0.505
15 45.00 1500.00 397 991 1.520 10000.000 0.000 -0.505
16 48.00 1500.00 388 908 1.520 10000.000 0.000 -0.505
17 51.00 1500.00 372 859 1.520 10000.000 0.000 -0.505
18 54.00 1500.00 374 901 1.520 10000.000 0.000 -0.505
19 57.00 1500.00 320 888 1.520 10000.000 0.000 -0.505
20 60.00 1500.00 317 831 1.520 10000.000 0.000 -0.505
21 63.00 1500.00 311 921 1.520 10000.000 0.000 -0.505
22 66.00 1500.00 292 969 1.520 10000.000 0.000 -0.505
23 69.00 1500.00 284 994 1.520 10000.000 0.000 -0.505
24 72.00 1500.00 299 1135 1.520 10000.000 0.000 -0.505
25 75.00 1500.00 250 1104 1.520 10000.000 0.000 -0.505
26 78.00 1500.00 270 1216 1.520 10000.000 0.000 -0.505
27 81.00 1500.00 228 1196 1.520 10000.000 0.000 -0.505
28 84.00 1500.00 248 1278 1.520 10000.000 0.000 -0.505
29 87.00 1500.00 252 1283 1.520 10000.000 0.000 -0.505
30 90.00 1500.00 218 1318 1.520 10000.000 0.000 -0.505
31 93.00 1500.00 225 1377 1.520 10000.000 0.000 -0.505
32 96.00 1500.00 268 1308 1.520 10000.000 0.000 -0.505
33 99.00 1500.00 283 1371 1.520 10000.000 0.000 -0.505
34 102.00 1500.00 283 1354 1.520 10000.000 0.000 -0.505
35 105.00 1500.00 278 1289 1.520 10000.000 0.000 -0.505
36 108.00 1500.00 298 1386 1.520 10000.000 0.000 -0.505
37 111.00 1500.00 325 1307 1.520 10000.000 0.000 -0.505
38 114.00 1500.00 362 1207 1.520 10000.000 0.000 -0.505
39 117.00 1500.00 341 1186 1.520 10000.000 0.000 -0.505
40 120.00 1500.00 365 1203 1.520 10000.000 0.000 -0.505
41 123.00 1500.00 381 1136 1.520 10000.000 0.000 -0.505
42 126.00 1500.00 367 1019 1.520 10000.000 0.000 -0.505
43 129.00 1500.00 380 928 1.520 10000.000 0.000 -0.505
44 132.00 1500.00 421 948 1.520 10000.000 0.000 -0.505
45 135.00 1500.00 403 826 1.520 10000.000 0.000 -0.505
46 138.00 1500.00 419 806 1.520 10000.000 0.000 -0.505
47 141.00 1500.00 384 781 1.520 10000.000 0.000 -0.505
48 144.00 1500.00 396 764 1.520 10000.000 0.000 -0.505
49 147.00 1500.00 350 661 1.520 10000.000 0.000 -0.505
50 150.00 1500.00 389 718 1.520 10000.000 0.000 -0.505
51 153.00 1500.00 364 762 1.520 10000.000 0.000 -0.505
52 156.00 1500.00 368 763 1.520 10000.000 0.000 -0.505
53 159.00 1500.00 325 795 1.520 10000.000 0.000 -0.505
54 162.00 1500.00 331 856 1.520 10000.000 0.000 -0.505
55 165.00 1500.00 291 904 1.520 10000.000 0.000 -0.505
56 168.00 1500.00 287 954 1.520 10000.000 0.000 -0.505
57 171.00 1500.00 297 1063 1.520 10000.000 0.000 -0.505
58 174.00 1500.00 266 1060 1.520 10000.000 0.000 -0.505
59 177.00 1500.00 240 1169 1.520 10000.000 0.000 -0.505
60 180.00 1500.00 263 1216 1.520 10000.000 0.000 -0.505
61 183.00 1500.00 237 1242 1.520 10000.000 0.000 -0.505
62 186.00 1500.00 239 1384 1.520 10000.000 0.000 -0.505
63 189.00 1500.00 246 1325 1.520 10000.000 0.000 -0.505
64 192.00 1500.00 222 1329 1.520 10000.000 0.000 -0.505
65 195.00 1500.00 271 1307 1.520 10000.000 0.000 -0.505
66 198.00 1500.00 284 1361 1.520 10000.000 0.000 -0.505
67 201.00 1500.00 291 1319 1.520 10000.000 0.000 -0.505
68 204.00 1500.00 281 1283 1.520 10000.000 0.000 -0.505
69 207.00 1500.00 359 1323 1.520 10000.000 0.000 -0.505
70 210.00 1500.00 335 1416 1.520 10000.000 0.000 -0.505
71 213.00 1500.00 312 1243 1.520 10000.000 0.000 -0.505
72 216.00 1500.00 342 1246 1.520 10000.000 0.000 -0.505
73 219.00 1500.00 350 1164 1.520 10000.000 0.000 -0.505
74 222.00 1500.00 377 1124 1.520 10000.000 0.000 -0.505
75 225.00 1500.00 415 1036 1.520 10000.000 0.000 -0.505
76 228.00 1500.00 428 1022 1.520 10000.000 0.000 -0.505
77 231.00 1500.00 402 905 1.520 10000.000 0.000 -0.505
78 234.00 1500.00 406 861 1.520 10000.000 0.000 -0.505
79 237.00 1500.00 406 828 1.520 10000.000 0.000 -0.505
80 240.00 1500.00 412 753 1.520 10000.000 0.000 -0.505
81 243.00 1500.00 426 736 1.520 10000.000 0.000 -0.505
82 246.00 1500.00 375 723 1.520 10000.000 0.000 -0.505
83 249.00 1500.00 378 693 1.520 10000.000 0.000 -0.505
84 252.00 1500.00 374 770 1.520 10000.000 0.000 -0.505
85 255.00 1500.00 368 795 1.520 10000.000 0.000 -0.505
86 258.00 1500.00 352 807 1.520 10000.000 0.000 -0.505
87 261.00 1500.00 314 892 1.520 10000.000 0.000 -0.505
88 264.00 1500.00 308 897 1.520 10000.000 0.000 -0.505
89 267.00 1500.00 260 965 1.520 10000.000 0.000 -0.505
90 270.00 1500.00 299 1066 1.520 10000.000 0.000 -0.505
91 273.00 1500.00 256 1107 1.520 10000.000 0.000 -0.505
92 276.00 1500.00 244 1142 1.520 10000.000 0.000 -0.505
93 279.00 1500.00 279 1256 1.520 10000.000 0.000 -0.505
94 282.00 1500.00 294 1311 1.520 10000.000 0.000 -0.505
95 285.00 1500.00 292 1296 1.520 10000.000 0.000 -0.505
96 288.00 1500.00 332 1407 1.520 10000.000 0.000 -0.505
97 291.00 1500.00 308 1310 1.520 10000.000 0.000 -0.505
98 294.00 1500.00 290 1381 1.520 10000.000 0.000 -0.505
99 297.00 1500.00 321 1406 1.520 10000.000 0.000 -0.505
100 300.00 1500.00 306 1365 1.520 10000.000 0.000 -0.505
101 303.00 1500.00 339 1322 1.520 10000.000 0.000 -0.505
102 306.00 1500.00 318 1434 1.520 10000.000 0.000 -0.505
103 309.00 1500.00 303 1231 1.520 10000.000 0.000 -0.505
104 312.00 1500.00 310 1289 1.520 10000.000 0.000 -0.505
105 315.00 1500.00 315 1224 1.520 10000.000 0.000 -0.505
106 318.00 1500.00 302 1202 1.520 10000.000 0.000 -0.505
107 321.00 1500.00 272 1145 1.520 10000.000 0.000 -0.505
108 324.00 1500.00 286 1127 1.520 10000.000 0.000 -0.505
109 327.00 1500.00 270 1028 1.520 10000.000 0.000 -0.505
110 330.00 1500.00 260 972 1.520 10000.000 0.000 -0.505
111 333.00 1500.00 309 872 1.520 10000.000 0.000 -0.505
112 336.00 1500.00 282 849 1.520 10000.000 0.000 -0.505
113 339.00 1500.00 309 734 1.520 10000.000 0.000 -0.505
114 342.00 1500.00 330 754 1.520 10000.000 0.000 -0.505
115 345.00 1500.00 353 716 1.520 10000.000 0.000 -0.505
116 348.00 1500.00 372 696 1.520 10000.000 0.000 -0.505
117 351.00 1500.00 365 727 1.520 10000.000 0.000 -0.505
118 354.00 1500.00 365 767 1.520 10000.000 0.000 -0.505
119 357.00 1500.00 388 774 1.520 10000.000 0.000 -0.505
120 360.00 1500.00 346 876 1.520 10000.000 0.000 -0.505
121 363.00 1500.00 404 927 1.520 10000.000 0.000 -0.505
122 366.00 1500.00 394 921 1.520 10000.000 0.000 -0.505
123 369.00 1500.00 417 1007 1.520 10000.000 0.000 -0.505
124 372.00 1500.00 418 1097 1.520 10000.000 0.000 -0.505
125 375.00 1500.00 367 1135 1.520 10000.000 0.000 -0.505
126 378.00 1500.00 398 1188 1.520 10000.000 0.000 -0.505
127 381.00 1500.00 413 1274 1.520 10000.000 0.000 -0.505
128 384.00 1500.00 404 1297 1.520 10000.000 0.000 -0.505
129 387.00 1500.00 377 1315 1.520 10000.000 0.000 -0.505
130 390.00 1500.00 341 1351 1.520 10000.000 0.000 -0.505
131 393.00 1500.00 304 1310 1.520 10000.000 0.000 -0.505
132 396.00 1500.00 326 1348 1.520 10000.000 0.000 -0.505
133 399.00 1500.00 282 1305 1.520 10000.000 0.000 -0.505
134 402.00 1500.00 282 1397 1.520 10000.000 0.000 -0.505
135 405.00 1500.00 278 1338 1.520 10000.000 0.000 -0.505
136 408.00 1500.00 295 1324 1.520 10000.000 0.000 -0.505
137 411.00 1500.00 299 1255 1.520 10000.000 0.000 -0.505
138 414.00 1500.00 236 1299 1.520 10000.000 0.000 -0.505
139 417.00 1500.00 228 1154 1.520 10000.000 0.000 -0.505
140 420.00 1500.00 245 1216 1.520 10000.000 0.000 -0.505
141 423.00 1500.00 285 1114 1.520 10000.000 0.000 -0.505
142 426.00 1500.00 255 1046 1.520 10000.000 0.000 -0.505
143 429.00 1500.00 278 974 1.520 10000.000 0.000 -0.505
144 432.00 1500.00 276 927 1.520 10000.000 0.000 -0.505
