# BinNR microsec tot-time (s)  O-Beam AUX Ampl(V) f(Hz) phase(deg) chi(pos)
0 0.00 1500.00 70 95 1.520 10000.000 0.000 0.835
1 3.00 1500.00 149 199 1.520 10000.000 0.000 0.835
2 6.00 1500.00 119 195 1.520 10000.000 0.000 0.835
3 9.00 1500.00 118 203 1.520 10000.000 0.000 0.835
4 12.00 1500.00 123 161 1.520 10000.000 0.000 0.835
5 15.00 1500.00 120 141 1.520 10000.000 0.000 0.835
6 18.00 1500.00 140 123 1.520 10000.000 0.000 0.835
7 21.00 1500.00 123 160 1.520 10000.000 0.000 0.835
8 24.00 1500.00 121 135 1.520 10000.000 0.000 0.835
9 27.00 1500.00 121 125 1.520 10000.000 0.000 0.835
10 30.00 1500.00 120 125 1.520 10000.000 0.000 0.835
11 33.00 1500.00 113 146 1.520 10000.000 0.000 0.835
12 36.00 1500.00 130 141 1.520 10000.000 0.000 0.835
13 39.00 1500.00 98 147 1.520 10000.000 0.000 0.835
14 42.00 1500.00 117 137 1.520 10000.000 0.000 0.835
15 45.00 1500.00 111 135 1.520 10000.000 0.000 0.835
16 48.00 1500.00 95 177 1.520 10000.000 0.000 0.835
17 51.00 1500.00 110 183 1.520 10000.000 0.000 0.835
18 54.00 1500.00 112 179 1.520 10000.000 0.000 0.835
19 57.00 1500.00 116 167 1.520 10000.000 0.000 0.835
20 60.00 1500.00 118 171 1.520 10000.000 0.000 0.835
21 63.00 1500.00 127 171 1.520 10000.000 0.000 0.835
22 66.00 1500.00 146 145 1.520 10000.000 0.000 0.835
23 69.00 1500.00 157 145 1.520 10000.000 0.000 0.835
24 72.00 1500.00 154 110 1.520 10000.000 0.000 0.835
25 75.00 1500.00 165 122 1.520 10000.000 0.000 0.835
26 78.00 1500.00 153 154 1.520 10000.000 0.000 0.835
27 81.00 1500.00 172 163 1.520 10000.000 0.000 0.835
28 84.00 1500.00 199 201 1.520 10000.000 0.000 0.835
29 87.00 1500.00 174 200 1.520 10000.000 0.000 0.835
30 90.00 1500.00 167 198 1.520 10000.000 0.000 0.835
31 93.00 1500.00 167 229 1.520 10000.000 0.000 0.835
32 96.00 1500.00 155 271 1.520 10000.000 0.000 0.835
33 99.00 1500.00 153 260 1.520 10000.000 0.000 0.835
34 102.00 1500.00 167 243 1.520 10000.000 0.000 0.835
35 105.00 1500.00 140 242 1.520 10000.000 0.000 0.835
36 108.00 1500.00 157 200 1.520 10000.000 0.000 0.835
37 111.00 1500.00 121 182 1.520 10000.000 0.000 0.835
38 114.00 1500.00 117 191 1.520 10000.000 0.000 0.835
39 117.00 1500.00 127 164 1.520 10000.000 0.000 0.835
40 120.00 1500.00 124 152 1.520 10000.000 0.000 0.835
41 123.00 1500.00 113 141 1.520 10000.000 0.000 0.835
42 126.00 1500.00 126 148 1.520 10000.000 0.000 0.835
43 129.00 1500.00 116 138 1.520 10000.000 0.000 0.835
44 132.00 1500.00 97 143 1.520 10000.000 0.000 0.835
45 135.00 1500.00 122 159 1.520 10000.000 0.000 0.835
46 138.00 1500.00 118 199 1.520 10000.000 0.000 0.835
47 141.00 1500.00 117 237 1.520 10000.000 0.000 0.835
48 144.00 1500.00 137 219 1.520 10000.000 0.000 0.835
49 147.00 1500.00 124 244 1.520 10000.000 0.000 0.835
50 150.00 1500.00 97 224 1.520 10000.000 0.000 0.835
51 153.00 1500.00 125 212 1.520 10000.000 0.000 0.835
52 156.00 1500.00 112 198 1.520 10000.000 0.000 0.835
53 159.00 1500.00 113 197 1.520 10000.000 0.000 0.835
54 162.00 1500.00 118 203 1.520 10000.000 0.000 0.835
55 165.00 1500.00 134 149 1.520 10000.000 0.000 0.835
56 168.00 1500.00 146 169 1.520 10000.000 0.000 0.835
57 171.00 1500.00 137 126 1.520 10000.000 0.000 0.835
58 174.00 1500.00 148 124 1.520 10000.000 0.000 0.835
59 177.00 1500.00 174 142 1.520 10000.000 0.000 0.835
60 180.00 1500.00 161 151 1.520 10000.000 0.000 0.835
61 183.00 1500.00 166 187 1.520 10000.000 0.000 0.835
62 186.00 1500.00 172 193 1.520 10000.000 0.000 0.835
63 189.00 1500.00 175 221 1.520 10000.000 0.000 0.835
64 192.00 1500.00 163 234 1.520 10000.000 0.000 0.835
65 195.00 1500.00 147 258 1.520 10000.000 0.000 0.835
66 198.00 1500.00 169 250 1.520 10000.000 0.000 0.835
67 201.00 1500.00 153 236 1.520 10000.000 0.000 0.835
68 204.00 1500.00 145 264 1.520 10000.000 0.000 0.835
69 207.00 1500.00 149 227 1.520 10000.000 0.000 0.835
70 210.00 1500.00 137 215 1.520 10000.000 0.000 0.835
71 213.00 1500.00 123 208 1.520 10000.000 0.000 0.835
72 216.00 1500.00 125 182 1.520 10000.000 0.000 0.835
73 219.00 1500.00 136 174 1.520 10000.000 0.000 0.835
74 222.00 1500.00 119 144 1.520 10000.000 0.000 0.835
75 225.00 1500.00 141 118 1.520 10000.000 0.000 0.835
76 228.00 1500.00 114 124 1.520 10000.000 0.000 0.835
77 231.00 1500.00 116 152 1.520 10000.000 0.000 0.835
78 234.00 1500.00 106 152 1.520 10000.000 0.000 0.835
79 237.00 1500.00 113 201 1.520 10000.000 0.000 0.835
80 240.00 1500.00 103 207 1.520 10000.000 0.000 0.835
81 243.00 1500.00 123 224 1.520 10000.000 0.000 0.835
82 246.00 1500.00 93 207 1.520 10000.000 0.000 0.835
83 249.00 1500.00 107 250 1.520 10000.000 0.000 0.835
84 252.00 1500.00 84 217 1.520 10000.000 0.000 0.835
85 255.00 1500.00 115 182 1.520 10000.000 0.000 0.835
86 258.00 1500.00 118 199 1.520 10000.000 0.000 0.835
87 261.00 1500.00 125 183 1.520 10000.000 0.000 0.835
88 264.00 1500.00 133 165 1.520 10000.000 0.000 0.835
89 267.00 1500.00 122 154 1.520 10000.000 0.000 0.835
90 270.00 1500.00 117 136 1.520 10000.000 0.000 0.835
91 273.00 1500.00 140 139 1.520 10000.000 0.000 0.835
92 276.00 1500.00 157 140 1.520 10000.000 0.000 0.835
93 279.00 1500.00 161 151 1.520 10000.000 0.000 0.835
94 282.00 1500.00 144 161 1.520 10000.000 0.000 0.835
95 285.00 1500.00 148 190 1.520 10000.000 0.000 0.835
96 288.00 1500.00 150 212 1.520 10000.000 0.000 0.835
97 291.00 1500.00 130 239 1.520 10000.000 0.000 0.835
98 294.00 1500.00 131 243 1.520 10000.000 0.000 0.835
99 297.00 1500.00 142 284 1.520 10000.000 0.000 0.835
100 300.00 1500.00 131 241 1.520 10000.000 0.000 0.835
101 303.00 1500.00 130 255 1.520 10000.000 0.000 0.835
102 306.00 1500.00 115 224 1.520 10000.000 0.000 0.835
103 309.00 1500.00 115 212 1.520 10000.000 0.000 0.835
104 312.00 1500.00 113 198 1.520 10000.000 0.000 0.835
105 315.00 1500.00 139 143 1.520 10000.000 0.000 0.835
106 318.00 1500.00 150 148 1.520 10000.000 0.000 0.835
107 321.00 1500.00 128 152 1.520 10000.000 0.000 0.835
108 324.00 1500.00 170 149 1.520 10000.000 0.000 0.835
109 327.00 1500.00 152 139 1.520 10000.000 0.000 0.835
110 330.00 1500.00 150 172 1.520 10000.000 0.000 0.835
111 333.00 1500.00 145 172 1.520 10000.000 0.000 0.835
112 336.00 1500.00 144 190 1.520 10000.000 0.000 0.835
113 339.00 1500.00 153 213 1.520 10000.000 0.000 0.835
114 342.00 1500.00 148 212 1.520 10000.000 0.000 0.835
115 345.00 1500.00 143 213 1.520 10000.000 0.000 0.835
116 348.00 1500.00 121 252 1.520 10000.000 0.000 0.835
117 351.00 1500.00 138 219 1.520 10000.000 0.000 0.835
118 354.00 1500.00 108 214 1.520 10000.000 0.000 0.835
119 357.00 1500.00 105 196 1.520 10000.000 0.000 0.835
120 360.00 1500.00 115 172 1.520 10000.000 0.000 0.835
121 363.00 1500.00 113 181 1.520 10000.000 0.000 0.835
122 366.00 1500.00 130 145 1.520 10000.000 0.000 0.835
123 369.00 1500.00 104 144 1.520 10000.000 0.000 0.835
124 372.00 1500.00 115 132 1.520 10000.000 0.000 0.835
125 375.00 1500.00 130 140 1.520 10000.000 0.000 0.835
126 378.00 1500.00 103 150 1.520 10000.000 0.000 0.835
127 381.00 1500.00 112 154 1.520 10000.000 0.000 0.835
128 384.00 1500.00 120 172 1.520 10000.000 0.000 0.835
129 387.00 1500.00 111 181 1.520 10000.000 0.000 0.835
130 390.00 1500.00 97 231 1.520 10000.000 0.000 0.835
131 393.00 1500.00 96 244 1.520 10000.000 0.000 0.835
132 396.00 1500.00 129 235 1.520 10000.000 0.000 0.835
133 399.00 1500.00 129 240 1.520 10000.000 0.000 0.835
134 402.00 1500.00 159 265 1.520 10000.000 0.000 0.835
135 405.00 1500.00 149 253 1.520 10000.000 0.000 0.835
136 408.00 1500.00 158 215 1.520 10000.000 0.000 0.835
137 411.00 1500.00 178 195 1.520 10000.000 0.000 0.835
138 414.00 1500.00 152 185 1.520 10000.000 0.000 0.835
139 417.00 1500.00 175 134 1.520 10000.000 0.000 0.835
140 420.00 1500.00 175 144 1.520 10000.000 0.000 0.835
141 423.00 1500.00 180 161 1.520 10000.000 0.000 0.835
142 426.00 1500.00 183 165 1.520 10000.000 0.000 0.835
143 429.00 1500.00 172 145 1.520 10000.000 0.000 0.835
144 432.00 1500.00 154 179 1.520 10000.000 0.000 0.835
