# BinNR microsec tot-time (s)  O-Beam AUX Ampl(V) f(Hz) phase(deg) chi(pos)
0 0.00 1500.01 112 162 1.520 10000.000 0.000 0.659
1 3.00 1500.01 195 361 1.520 10000.000 0.000 0.659
2 6.00 1500.01 179 374 1.520 10000.000 0.000 0.659
3 9.00 1500.01 189 349 1.520 10000.000 0.000 0.659
4 12.00 1500.01 196 350 1.520 10000.000 0.000 0.659
5 15.00 1500.01 157 281 1.520 10000.000 0.000 0.659
6 18.00 1500.01 139 257 1.520 10000.000 0.000 0.659
7 21.00 1500.01 155 226 1.520 10000.000 0.000 0.659
8 24.00 1500.01 139 241 1.520 10000.000 0.000 0.659
9 27.00 1500.01 145 230 1.520 10000.000 0.000 0.659
10 30.00 1500.01 136 175 1.520 10000.000 0.000 0.659
11 33.00 1500.01 137 225 1.520 10000.000 0.000 0.659
12 36.00 1500.01 125 213 1.520 10000.000 0.000 0.659
13 39.00 1500.01 130 205 1.520 10000.000 0.000 0.659
14 42.00 1500.01 128 236 1.520 10000.000 0.000 0.659
15 45.00 1500.01 118 269 1.520 10000.000 0.000 0.659
16 48.00 1500.01 133 286 1.520 10000.000 0.000 0.659
17 51.00 1500.01 130 330 1.520 10000.000 0.000 0.659
18 54.00 1500.01 135 351 1.520 10000.000 0.000 0.659
19 57.00 1500.01 154 328 1.520 10000.000 0.000 0.659
20 60.00 1500.01 158 356 1.520 10000.000 0.000 0.659
21 63.00 1500.01 160 301 1.520 10000.000 0.000 0.659
22 66.00 1500.01 163 290 1.520 10000.000 0.000 0.659
23 69.00 1500.01 184 243 1.520 10000.000 0.000 0.659
24 72.00 1500.01 221 243 1.520 10000.000 0.000 0.659
25 75.00 1500.01 227 201 1.520 10000.000 0.000 0.659
26 78.00 1500.01 190 169 1.520 10000.000 0.000 0.659
27 81.00 1500.01 225 124 1.520 10000.000 0.000 0.659
28 84.00 1500.01 239 138 1.520 10000.000 0.000 0.659
29 87.00 1500.01 254 132 1.520 10000.000 0.000 0.659
30 90.00 1500.01 249 143 1.520 10000.000 0.000 0.659
31 93.00 1500.01 239 163 1.520 10000.000 0.000 0.659
32 96.00 1500.01 231 163 1.520 10000.000 0.000 0.659
33 99.00 1500.01 227 142 1.520 10000.000 0.000 0.659
34 102.00 1500.01 224 139 1.520 10000.000 0.000 0.659
35 105.00 1500.01 202 148 1.520 10000.000 0.000 0.659
36 108.00 1500.01 176 149 1.520 10000.000 0.000 0.659
37 111.00 1500.01 167 137 1.520 10000.000 0.000 0.659
38 114.00 1500.01 153 140 1.520 10000.000 0.000 0.659
39 117.00 1500.01 159 144 1.520 10000.000 0.000 0.659
40 120.00 1500.01 144 190 1.520 10000.000 0.000 0.659
41 123.00 1500.01 142 182 1.520 10000.000 0.000 0.659
42 126.00 1500.01 135 223 1.520 10000.000 0.000 0.659
43 129.00 1500.01 109 285 1.520 10000.000 0.000 0.659
44 132.00 1500.01 127 299 1.520 10000.000 0.000 0.659
45 135.00 1500.01 131 343 1.520 10000.000 0.000 0.659
46 138.00 1500.01 111 425 1.520 10000.000 0.000 0.659
47 141.00 1500.01 113 423 1.520 10000.000 0.000 0.659
48 144.00 1500.01 116 473 1.520 10000.000 0.000 0.659
49 147.00 1500.01 114 455 1.520 10000.000 0.000 0.659
50 150.00 1500.01 130 407 1.520 10000.000 0.000 0.659
51 153.00 1500.01 141 430 1.520 10000.000 0.000 0.659
52 156.00 1500.01 137 393 1.520 10000.000 0.000 0.659
53 159.00 1500.01 153 388 1.520 10000.000 0.000 0.659
54 162.00 1500.01 196 320 1.520 10000.000 0.000 0.659
55 165.00 1500.01 180 296 1.520 10000.000 0.000 0.659
56 168.00 1500.01 200 257 1.520 10000.000 0.000 0.659
57 171.00 1500.01 186 231 1.520 10000.000 0.000 0.659
58 174.00 1500.01 224 210 1.520 10000.000 0.000 0.659
59 177.00 1500.01 221 177 1.520 10000.000 0.000 0.659
60 180.00 1500.01 248 138 1.520 10000.000 0.000 0.659
61 183.00 1500.01 243 122 1.520 10000.000 0.000 0.659
62 186.00 1500.01 242 139 1.520 10000.000 0.000 0.659
63 189.00 1500.01 246 119 1.520 10000.000 0.000 0.659
64 192.00 1500.01 243 134 1.520 10000.000 0.000 0.659
65 195.00 1500.01 240 144 1.520 10000.000 0.000 0.659
66 198.00 1500.01 201 149 1.520 10000.000 0.000 0.659
67 201.00 1500.01 223 156 1.520 10000.000 0.000 0.659
68 204.00 1500.01 191 131 1.520 10000.000 0.000 0.659
69 207.00 1500.01 205 121 1.520 10000.000 0.000 0.659
70 210.00 1500.01 194 139 1.520 10000.000 0.000 0.659
71 213.00 1500.01 157 130 1.520 10000.000 0.000 0.659
72 216.00 1500.01 158 154 1.520 10000.000 0.000 0.659
73 219.00 1500.01 136 155 1.520 10000.000 0.000 0.659
74 222.00 1500.01 142 179 1.520 10000.000 0.000 0.659
75 225.00 1500.01 124 230 1.520 10000.000 0.000 0.659
76 228.00 1500.01 110 250 1.520 10000.000 0.000 0.659
77 231.00 1500.01 94 296 1.520 10000.000 0.000 0.659
78 234.00 1500.01 127 338 1.520 10000.000 0.000 0.659
79 237.00 1500.01 127 371 1.520 10000.000 0.000 0.659
80 240.00 1500.01 128 405 1.520 10000.000 0.000 0.659
81 243.00 1500.01 111 411 1.520 10000.000 0.000 0.659
82 246.00 1500.01 121 439 1.520 10000.000 0.000 0.659
83 249.00 1500.01 136 431 1.520 10000.000 0.000 0.659
84 252.00 1500.01 119 473 1.520 10000.000 0.000 0.659
85 255.00 1500.01 149 463 1.520 10000.000 0.000 0.659
86 258.00 1500.01 155 402 1.520 10000.000 0.000 0.659
87 261.00 1500.01 142 337 1.520 10000.000 0.000 0.659
88 264.00 1500.01 166 296 1.520 10000.000 0.000 0.659
89 267.00 1500.01 180 281 1.520 10000.000 0.000 0.659
90 270.00 1500.01 203 234 1.520 10000.000 0.000 0.659
91 273.00 1500.01 215 221 1.520 10000.000 0.000 0.659
92 276.00 1500.01 209 188 1.520 10000.000 0.000 0.659
93 279.00 1500.01 196 158 1.520 10000.000 0.000 0.659
94 282.00 1500.01 195 130 1.520 10000.000 0.000 0.659
95 285.00 1500.01 212 126 1.520 10000.000 0.000 0.659
96 288.00 1500.01 180 129 1.520 10000.000 0.000 0.659
97 291.00 1500.01 204 131 1.520 10000.000 0.000 0.659
98 294.00 1500.01 179 146 1.520 10000.000 0.000 0.659
99 297.00 1500.01 174 131 1.520 10000.000 0.000 0.659
100 300.00 1500.01 183 120 1.520 10000.000 0.000 0.659
101 303.00 1500.01 164 139 1.520 10000.000 0.000 0.659
102 306.00 1500.01 194 152 1.520 10000.000 0.000 0.659
103 309.00 1500.01 152 129 1.520 10000.000 0.000 0.659
104 312.00 1500.01 210 136 1.520 10000.000 0.000 0.659
105 315.00 1500.01 175 133 1.520 10000.000 0.000 0.659
106 318.00 1500.01 182 168 1.520 10000.000 0.000 0.659
107 321.00 1500.01 179 191 1.520 10000.000 0.000 0.659
108 324.00 1500.01 198 186 1.520 10000.000 0.000 0.659
109 327.00 1500.01 205 205 1.520 10000.000 0.000 0.659
110 330.00 1500.01 224 251 1.520 10000.000 0.000 0.659
111 333.00 1500.01 212 312 1.520 10000.000 0.000 0.659
112 336.00 1500.01 192 380 1.520 10000.000 0.000 0.659
113 339.00 1500.01 179 389 1.520 10000.000 0.000 0.659
114 342.00 1500.01 165 421 1.520 10000.000 0.000 0.659
115 345.00 1500.01 160 419 1.520 10000.000 0.000 0.659
116 348.00 1500.01 176 467 1.520 10000.000 0.000 0.659
117 351.00 1500.01 139 438 1.520 10000.000 0.000 0.659
118 354.00 1500.01 164 408 1.520 10000.000 0.000 0.659
119 357.00 1500.01 154 446 1.520 10000.000 0.000 0.659
120 360.00 1500.01 138 334 1.520 10000.000 0.000 0.659
121 363.00 1500.01 121 304 1.520 10000.000 0.000 0.659
122 366.00 1500.01 138 311 1.520 10000.000 0.000 0.659
123 369.00 1500.01 108 253 1.520 10000.000 0.000 0.659
124 372.00 1500.01 106 211 1.520 10000.000 0.000 0.659
125 375.00 1500.01 102 166 1.520 10000.000 0.000 0.659
126 378.00 1500.01 103 154 1.520 10000.000 0.000 0.659
127 381.00 1500.01 119 156 1.520 10000.000 0.000 0.659
128 384.00 1500.01 126 122 1.520 10000.000 0.000 0.659
129 387.00 1500.01 110 148 1.520 10000.000 0.000 0.659
130 390.00 1500.01 153 113 1.520 10000.000 0.000 0.659
131 393.00 1500.01 146 132 1.520 10000.000 0.000 0.659
132 396.00 1500.01 188 144 1.520 10000.000 0.000 0.659
133 399.00 1500.01 167 145 1.520 10000.000 0.000 0.659
134 402.00 1500.01 194 152 1.520 10000.000 0.000 0.659
135 405.00 1500.01 204 142 1.520 10000.000 0.000 0.659
136 408.00 1500.01 228 141 1.520 10000.000 0.000 0.659
137 411.00 1500.01 236 145 1.520 10000.000 0.000 0.659
138 414.00 1500.01 238 153 1.520 10000.000 0.000 0.659
139 417.00 1500.01 246 140 1.520 10000.000 0.000 0.659
140 420.00 1500.01 250 158 1.520 10000.000 0.000 0.659
141 423.00 1500.01 212 181 1.520 10000.000 0.000 0.659
142 426.00 1500.01 253 242 1.520 10000.000 0.000 0.659
143 429.00 1500.01 230 257 1.520 10000.000 0.000 0.659
144 432.00 1500.01 212 302 1.520 10000.000 0.000 0.659
