# BinNR microsec tot-time (s)  O-Beam AUX Ampl(V) f(Hz) phase(deg) chi(pos)
0 0.00 1500.03 65 137 1.520 10000.000 0.000 1.154
1 3.00 1500.03 142 264 1.520 10000.000 0.000 1.154
2 6.00 1500.03 152 244 1.520 10000.000 0.000 1.154
3 9.00 1500.03 149 273 1.520 10000.000 0.000 1.154
4 12.00 1500.03 165 267 1.520 10000.000 0.000 1.154
5 15.00 1500.03 174 298 1.520 10000.000 0.000 1.154
6 18.00 1500.03 198 309 1.520 10000.000 0.000 1.154
7 21.00 1500.03 211 340 1.520 10000.000 0.000 1.154
8 24.00 1500.03 215 362 1.520 10000.000 0.000 1.154
9 27.00 1500.03 200 378 1.520 10000.000 0.000 1.154
10 30.00 1500.03 242 419 1.520 10000.000 0.000 1.154
11 33.00 1500.03 224 429 1.520 10000.000 0.000 1.154
12 36.00 1500.03 228 452 1.520 10000.000 0.000 1.154
13 39.00 1500.03 207 391 1.520 10000.000 0.000 1.154
14 42.00 1500.03 246 407 1.520 10000.000 0.000 1.154
15 45.00 1500.03 205 369 1.520 10000.000 0.000 1.154
16 48.00 1500.03 201 344 1.520 10000.000 0.000 1.154
17 51.00 1500.03 204 317 1.520 10000.000 0.000 1.154
18 54.00 1500.03 213 286 1.520 10000.000 0.000 1.154
19 57.00 1500.03 173 249 1.520 10000.000 0.000 1.154
20 60.00 1500.03 162 264 1.520 10000.000 0.000 1.154
21 63.00 1500.03 142 261 1.520 10000.000 0.000 1.154
22 66.00 1500.03 140 317 1.520 10000.000 0.000 1.154
23 69.00 1500.03 156 343 1.520 10000.000 0.000 1.154
24 72.00 1500.03 148 376 1.520 10000.000 0.000 1.154
25 75.00 1500.03 117 422 1.520 10000.000 0.000 1.154
26 78.00 1500.03 140 502 1.520 10000.000 0.000 1.154
27 81.00 1500.03 126 576 1.520 10000.000 0.000 1.154
28 84.00 1500.03 142 586 1.520 10000.000 0.000 1.154
29 87.00 1500.03 123 712 1.520 10000.000 0.000 1.154
30 90.00 1500.03 134 716 1.520 10000.000 0.000 1.154
31 93.00 1500.03 139 737 1.520 10000.000 0.000 1.154
32 96.00 1500.03 127 803 1.520 10000.000 0.000 1.154
33 99.00 1500.03 122 730 1.520 10000.000 0.000 1.154
34 102.00 1500.03 140 732 1.520 10000.000 0.000 1.154
35 105.00 1500.03 148 749 1.520 10000.000 0.000 1.154
36 108.00 1500.03 167 734 1.520 10000.000 0.000 1.154
37 111.00 1500.03 175 678 1.520 10000.000 0.000 1.154
38 114.00 1500.03 183 637 1.520 10000.000 0.000 1.154
39 117.00 1500.03 182 523 1.520 10000.000 0.000 1.154
40 120.00 1500.03 184 533 1.520 10000.000 0.000 1.154
41 123.00 1500.03 204 447 1.520 10000.000 0.000 1.154
42 126.00 1500.03 220 379 1.520 10000.000 0.000 1.154
43 129.00 1500.03 252 309 1.520 10000.000 0.000 1.154
44 132.00 1500.03 206 289 1.520 10000.000 0.000 1.154
45 135.00 1500.03 230 266 1.520 10000.000 0.000 1.154
46 138.00 1500.03 247 222 1.520 10000.000 0.000 1.154
47 141.00 1500.03 226 218 1.520 10000.000 0.000 1.154
48 144.00 1500.03 234 231 1.520 10000.000 0.000 1.154
49 147.00 1500.03 204 175 1.520 10000.000 0.000 1.154
50 150.00 1500.03 208 219 1.520 10000.000 0.000 1.154
51 153.00 1500.03 173 207 1.520 10000.000 0.000 1.154
52 156.00 1500.03 160 220 1.520 10000.000 0.000 1.154
53 159.00 1500.03 178 231 1.520 10000.000 0.000 1.154
54 162.00 1500.03 152 267 1.520 10000.000 0.000 1.154
55 165.00 1500.03 136 305 1.520 10000.000 0.000 1.154
56 168.00 1500.03 136 309 1.520 10000.000 0.000 1.154
57 171.00 1500.03 151 381 1.520 10000.000 0.000 1.154
58 174.00 1500.03 133 400 1.520 10000.000 0.000 1.154
59 177.00 1500.03 129 539 1.520 10000.000 0.000 1.154
60 180.00 1500.03 120 564 1.520 10000.000 0.000 1.154
61 183.00 1500.03 134 597 1.520 10000.000 0.000 1.154
62 186.00 1500.03 135 680 1.520 10000.000 0.000 1.154
63 189.00 1500.03 126 729 1.520 10000.000 0.000 1.154
64 192.00 1500.03 136 762 1.520 10000.000 0.000 1.154
65 195.00 1500.03 139 756 1.520 10000.000 0.000 1.154
66 198.00 1500.03 140 796 1.520 10000.000 0.000 1.154
67 201.00 1500.03 150 736 1.520 10000.000 0.000 1.154
68 204.00 1500.03 176 780 1.520 10000.000 0.000 1.154
69 207.00 1500.03 159 697 1.520 10000.000 0.000 1.154
70 210.00 1500.03 169 696 1.520 10000.000 0.000 1.154
71 213.00 1500.03 170 611 1.520 10000.000 0.000 1.154
72 216.00 1500.03 191 601 1.520 10000.000 0.000 1.154
73 219.00 1500.03 179 490 1.520 10000.000 0.000 1.154
74 222.00 1500.03 178 470 1.520 10000.000 0.000 1.154
75 225.00 1500.03 221 366 1.520 10000.000 0.000 1.154
76 228.00 1500.03 191 329 1.520 10000.000 0.000 1.154
77 231.00 1500.03 238 310 1.520 10000.000 0.000 1.154
78 234.00 1500.03 245 273 1.520 10000.000 0.000 1.154
79 237.00 1500.03 211 247 1.520 10000.000 0.000 1.154
80 240.00 1500.03 237 233 1.520 10000.000 0.000 1.154
81 243.00 1500.03 221 200 1.520 10000.000 0.000 1.154
82 246.00 1500.03 208 222 1.520 10000.000 0.000 1.154
83 249.00 1500.03 200 209 1.520 10000.000 0.000 1.154
84 252.00 1500.03 212 224 1.520 10000.000 0.000 1.154
85 255.00 1500.03 166 228 1.520 10000.000 0.000 1.154
86 258.00 1500.03 177 217 1.520 10000.000 0.000 1.154
87 261.00 1500.03 147 237 1.520 10000.000 0.000 1.154
88 264.00 1500.03 135 270 1.520 10000.000 0.000 1.154
89 267.00 1500.03 141 288 1.520 10000.000 0.000 1.154
90 270.00 1500.03 149 352 1.520 10000.000 0.000 1.154
91 273.00 1500.03 114 359 1.520 10000.000 0.000 1.154
92 276.00 1500.03 114 475 1.520 10000.000 0.000 1.154
93 279.00 1500.03 133 477 1.520 10000.000 0.000 1.154
94 282.00 1500.03 134 637 1.520 10000.000 0.000 1.154
95 285.00 1500.03 144 652 1.520 10000.000 0.000 1.154
96 288.00 1500.03 138 668 1.520 10000.000 0.000 1.154
97 291.00 1500.03 180 720 1.520 10000.000 0.000 1.154
98 294.00 1500.03 159 780 1.520 10000.000 0.000 1.154
99 297.00 1500.03 151 753 1.520 10000.000 0.000 1.154
100 300.00 1500.03 147 689 1.520 10000.000 0.000 1.154
101 303.00 1500.03 147 775 1.520 10000.000 0.000 1.154
102 306.00 1500.03 140 729 1.520 10000.000 0.000 1.154
103 309.00 1500.03 147 701 1.520 10000.000 0.000 1.154
104 312.00 1500.03 145 659 1.520 10000.000 0.000 1.154
105 315.00 1500.03 152 598 1.520 10000.000 0.000 1.154
106 318.00 1500.03 123 550 1.520 10000.000 0.000 1.154
107 321.00 1500.03 128 452 1.520 10000.000 0.000 1.154
108 324.00 1500.03 117 400 1.520 10000.000 0.000 1.154
109 327.00 1500.03 149 345 1.520 10000.000 0.000 1.154
110 330.00 1500.03 133 327 1.520 10000.000 0.000 1.154
111 333.00 1500.03 150 292 1.520 10000.000 0.000 1.154
112 336.00 1500.03 146 262 1.520 10000.000 0.000 1.154
113 339.00 1500.03 139 247 1.520 10000.000 0.000 1.154
114 342.00 1500.03 139 206 1.520 10000.000 0.000 1.154
115 345.00 1500.03 167 189 1.520 10000.000 0.000 1.154
116 348.00 1500.03 196 217 1.520 10000.000 0.000 1.154
117 351.00 1500.03 174 200 1.520 10000.000 0.000 1.154
118 354.00 1500.03 188 225 1.520 10000.000 0.000 1.154
119 357.00 1500.03 182 215 1.520 10000.000 0.000 1.154
120 360.00 1500.03 218 244 1.520 10000.000 0.000 1.154
121 363.00 1500.03 215 277 1.520 10000.000 0.000 1.154
122 366.00 1500.03 228 293 1.520 10000.000 0.000 1.154
123 369.00 1500.03 229 309 1.520 10000.000 0.000 1.154
124 372.00 1500.03 221 407 1.520 10000.000 0.000 1.154
125 375.00 1500.03 225 449 1.520 10000.000 0.000 1.154
126 378.00 1500.03 225 510 1.520 10000.000 0.000 1.154
127 381.00 1500.03 212 592 1.520 10000.000 0.000 1.154
128 384.00 1500.03 202 690 1.520 10000.000 0.000 1.154
129 387.00 1500.03 193 672 1.520 10000.000 0.000 1.154
130 390.00 1500.03 154 721 1.520 10000.000 0.000 1.154
131 393.00 1500.03 144 733 1.520 10000.000 0.000 1.154
132 396.00 1500.03 158 793 1.520 10000.000 0.000 1.154
133 399.00 1500.03 147 767 1.520 10000.000 0.000 1.154
134 402.00 1500.03 147 766 1.520 10000.000 0.000 1.154
135 405.00 1500.03 133 725 1.520 10000.000 0.000 1.154
136 408.00 1500.03 158 675 1.520 10000.000 0.000 1.154
137 411.00 1500.03 113 674 1.520 10000.000 0.000 1.154
138 414.00 1500.03 115 599 1.520 10000.000 0.000 1.154
139 417.00 1500.03 134 561 1.520 10000.000 0.000 1.154
140 420.00 1500.03 140 477 1.520 10000.000 0.000 1.154
141 423.00 1500.03 139 422 1.520 10000.000 0.000 1.154
142 426.00 1500.03 142 389 1.520 10000.000 0.000 1.154
143 429.00 1500.03 149 341 1.520 10000.000 0.000 1.154
144 432.00 1500.03 146 254 1.520 10000.000 0.000 1.154
