# BinNR microsec tot-time (s)  O-Beam AUX Ampl(V) f(Hz) phase(deg) chi(pos)
0 0.00 1500.00 81 265 1.520 10000.000 0.000 -0.681
1 3.00 1500.00 196 539 1.520 10000.000 0.000 -0.681
2 6.00 1500.00 233 519 1.520 10000.000 0.000 -0.681
3 9.00 1500.00 253 543 1.520 10000.000 0.000 -0.681
4 12.00 1500.00 264 585 1.520 10000.000 0.000 -0.681
5 15.00 1500.00 295 607 1.520 10000.000 0.000 -0.681
6 18.00 1500.00 320 672 1.520 10000.000 0.000 -0.681
7 21.00 1500.00 306 686 1.520 10000.000 0.000 -0.681
8 24.00 1500.00 280 746 1.520 10000.000 0.000 -0.681
9 27.00 1500.00 309 729 1.520 10000.000 0.000 -0.681
10 30.00 1500.00 372 774 1.520 10000.000 0.000 -0.681
11 33.00 1500.00 382 759 1.520 10000.000 0.000 -0.681
12 36.00 1500.00 310 856 1.520 10000.000 0.000 -0.681
13 39.00 1500.00 304 698 1.520 10000.000 0.000 -0.681
14 42.00 1500.00 313 728 1.520 10000.000 0.000 -0.681
15 45.00 1500.00 285 726 1.520 10000.000 0.000 -0.681
16 48.00 1500.00 317 599 1.520 10000.000 0.000 -0.681
17 51.00 1500.00 288 646 1.520 10000.000 0.000 -0.681
18 54.00 1500.00 299 624 1.520 10000.000 0.000 -0.681
19 57.00 1500.00 268 579 1.520 10000.000 0.000 -0.681
20 60.00 1500.00 253 583 1.520 10000.000 0.000 -0.681
21 63.00 1500.00 232 628 1.520 10000.000 0.000 -0.681
22 66.00 1500.00 221 702 1.520 10000.000 0.000 -0.681
23 69.00 1500.00 195 702 1.520 10000.000 0.000 -0.681
24 72.00 1500.00 204 805 1.520 10000.000 0.000 -0.681
25 75.00 1500.00 188 893 1.520 10000.000 0.000 -0.681
26 78.00 1500.00 196 875 1.520 10000.000 0.000 -0.681
27 81.00 1500.00 197 981 1.520 10000.000 0.000 -0.681
28 84.00 1500.00 213 1014 1.520 10000.000 0.000 -0.681
29 87.00 1500.00 190 1109 1.520 10000.000 0.000 -0.681
30 90.00 1500.00 186 1195 1.520 10000.000 0.000 -0.681
31 93.00 1500.00 225 1110 1.520 10000.000 0.000 -0.681
32 96.00 1500.00 204 1113 1.520 10000.000 0.000 -0.681
33 99.00 1500.00 212 1180 1.520 10000.000 0.000 -0.681
34 102.00 1500.00 203 1218 1.520 10000.000 0.000 -0.681
35 105.00 1500.00 252 1177 1.520 10000.000 0.000 -0.681
36 108.00 1500.00 222 1081 1.520 10000.000 0.000 -0.681
37 111.00 1500.00 245 1028 1.520 10000.000 0.000 -0.681
38 114.00 1500.00 271 1062 1.520 10000.000 0.000 -0.681
39 117.00 1500.00 293 964 1.520 10000.000 0.000 -0.681
40 120.00 1500.00 279 948 1.520 10000.000 0.000 -0.681
41 123.00 1500.00 301 808 1.520 10000.000 0.000 -0.681
42 126.00 1500.00 319 777 1.520 10000.000 0.000 -0.681
43 129.00 1500.00 308 674 1.520 10000.000 0.000 -0.681
44 132.00 1500.00 345 604 1.520 10000.000 0.000 -0.681
45 135.00 1500.00 381 527 1.520 10000.000 0.000 -0.681
46 138.00 1500.00 333 513 1.520 10000.000 0.000 -0.681
47 141.00 1500.00 312 495 1.520 10000.000 0.000 -0.681
48 144.00 1500.00 307 520 1.520 10000.000 0.000 -0.681
49 147.00 1500.00 310 422 1.520 10000.000 0.000 -0.681
50 150.00 1500.00 316 445 1.520 10000.000 0.000 -0.681
51 153.00 1500.00 259 443 1.520 10000.000 0.000 -0.681
52 156.00 1500.00 300 473 1.520 10000.000 0.000 -0.681
53 159.00 1500.00 261 532 1.520 10000.000 0.000 -0.681
54 162.00 1500.00 244 592 1.520 10000.000 0.000 -0.681
55 165.00 1500.00 250 607 1.520 10000.000 0.000 -0.681
56 168.00 1500.00 215 711 1.520 10000.000 0.000 -0.681
57 171.00 1500.00 225 716 1.520 10000.000 0.000 -0.681
58 174.00 1500.00 223 818 1.520 10000.000 0.000 -0.681
59 177.00 1500.00 170 847 1.520 10000.000 0.000 -0.681
60 180.00 1500.00 182 981 1.520 10000.000 0.000 -0.681
61 183.00 1500.00 222 1042 1.520 10000.000 0.000 -0.681
62 186.00 1500.00 201 1087 1.520 10000.000 0.000 -0.681
63 189.00 1500.00 161 1187 1.520 10000.000 0.000 -0.681
64 192.00 1500.00 180 1118 1.520 10000.000 0.000 -0.681
65 195.00 1500.00 171 1083 1.520 10000.000 0.000 -0.681
66 198.00 1500.00 220 1179 1.520 10000.000 0.000 -0.681
67 201.00 1500.00 207 1187 1.520 10000.000 0.000 -0.681
68 204.00 1500.00 218 1175 1.520 10000.000 0.000 -0.681
69 207.00 1500.00 242 1110 1.520 10000.000 0.000 -0.681
70 210.00 1500.00 229 1058 1.520 10000.000 0.000 -0.681
71 213.00 1500.00 274 1095 1.520 10000.000 0.000 -0.681
72 216.00 1500.00 273 1013 1.520 10000.000 0.000 -0.681
73 219.00 1500.00 276 951 1.520 10000.000 0.000 -0.681
74 222.00 1500.00 304 878 1.520 10000.000 0.000 -0.681
75 225.00 1500.00 304 766 1.520 10000.000 0.000 -0.681
76 228.00 1500.00 321 697 1.520 10000.000 0.000 -0.681
77 231.00 1500.00 346 664 1.520 10000.000 0.000 -0.681
78 234.00 1500.00 328 593 1.520 10000.000 0.000 -0.681
79 237.00 1500.00 340 505 1.520 10000.000 0.000 -0.681
80 240.00 1500.00 335 523 1.520 10000.000 0.000 -0.681
81 243.00 1500.00 333 502 1.520 10000.000 0.000 -0.681
82 246.00 1500.00 323 465 1.520 10000.000 0.000 -0.681
83 249.00 1500.00 297 439 1.520 10000.000 0.000 -0.681
84 252.00 1500.00 309 438 1.520 10000.000 0.000 -0.681
85 255.00 1500.00 293 468 1.520 10000.000 0.000 -0.681
86 258.00 1500.00 266 542 1.520 10000.000 0.000 -0.681
87 261.00 1500.00 237 567 1.520 10000.000 0.000 -0.681
88 264.00 1500.00 240 595 1.520 10000.000 0.000 -0.681
89 267.00 1500.00 242 649 1.520 10000.000 0.000 -0.681
90 270.00 1500.00 205 664 1.520 10000.000 0.000 -0.681
91 273.00 1500.00 208 751 1.520 10000.000 0.000 -0.681
92 276.00 1500.00 217 895 1.520 10000.000 0.000 -0.681
93 279.00 1500.00 202 950 1.520 10000.000 0.000 -0.681
94 282.00 1500.00 207 1013 1.520 10000.000 0.000 -0.681
95 285.00 1500.00 213 1093 1.520 10000.000 0.000 -0.681
96 288.00 1500.00 234 1087 1.520 10000.000 0.000 -0.681
97 291.00 1500.00 225 1138 1.520 10000.000 0.000 -0.681
98 294.00 1500.00 190 1126 1.520 10000.000 0.000 -0.681
99 297.00 1500.00 251 1188 1.520 10000.000 0.000 -0.681
100 300.00 1500.00 241 1218 1.520 10000.000 0.000 -0.681
101 303.00 1500.00 265 1190 1.520 10000.000 0.000 -0.681
102 306.00 1500.00 214 1157 1.520 10000.000 0.000 -0.681
103 309.00 1500.00 246 1081 1.520 10000.000 0.000 -0.681
104 312.00 1500.00 210 1083 1.520 10000.000 0.000 -0.681
105 315.00 1500.00 230 964 1.520 10000.000 0.000 -0.681
106 318.00 1500.00 193 946 1.520 10000.000 0.000 -0.681
107 321.00 1500.00 222 895 1.520 10000.000 0.000 -0.681
108 324.00 1500.00 202 764 1.520 10000.000 0.000 -0.681
109 327.00 1500.00 177 707 1.520 10000.000 0.000 -0.681
110 330.00 1500.00 225 586 1.520 10000.000 0.000 -0.681
111 333.00 1500.00 218 620 1.520 10000.000 0.000 -0.681
112 336.00 1500.00 223 506 1.520 10000.000 0.000 -0.681
113 339.00 1500.00 236 489 1.520 10000.000 0.000 -0.681
114 342.00 1500.00 218 496 1.520 10000.000 0.000 -0.681
115 345.00 1500.00 238 437 1.520 10000.000 0.000 -0.681
116 348.00 1500.00 269 429 1.520 10000.000 0.000 -0.681
117 351.00 1500.00 328 440 1.520 10000.000 0.000 -0.681
118 354.00 1500.00 301 486 1.520 10000.000 0.000 -0.681
119 357.00 1500.00 282 488 1.520 10000.000 0.000 -0.681
120 360.00 1500.00 338 562 1.520 10000.000 0.000 -0.681
121 363.00 1500.00 330 617 1.520 10000.000 0.000 -0.681
122 366.00 1500.00 322 655 1.520 10000.000 0.000 -0.681
123 369.00 1500.00 348 720 1.520 10000.000 0.000 -0.681
124 372.00 1500.00 345 773 1.520 10000.000 0.000 -0.681
125 375.00 1500.00 329 863 1.520 10000.000 0.000 -0.681
126 378.00 1500.00 352 913 1.520 10000.000 0.000 -0.681
127 381.00 1500.00 309 978 1.520 10000.000 0.000 -0.681
128 384.00 1500.00 308 998 1.520 10000.000 0.000 -0.681
129 387.00 1500.00 282 1127 1.520 10000.000 0.000 -0.681
130 390.00 1500.00 259 1156 1.520 10000.000 0.000 -0.681
131 393.00 1500.00 267 1163 1.520 10000.000 0.000 -0.681
132 396.00 1500.00 221 1226 1.520 10000.000 0.000 -0.681
133 399.00 1500.00 228 1172 1.520 10000.000 0.000 -0.681
134 402.00 1500.00 204 1220 1.520 10000.000 0.000 -0.681
135 405.00 1500.00 189 1110 1.520 10000.000 0.000 -0.681
136 408.00 1500.00 235 1120 1.520 10000.000 0.000 -0.681
137 411.00 1500.00 193 1083 1.520 10000.000 0.000 -0.681
138 414.00 1500.00 171 1053 1.520 10000.000 0.000 -0.681
139 417.00 1500.00 187 929 1.520 10000.000 0.000 -0.681
140 420.00 1500.00 187 946 1.520 10000.000 0.000 -0.681
141 423.00 1500.00 203 818 1.520 10000.000 0.000 -0.681
142 426.00 1500.00 177 757 1.520 10000.000 0.000 -0.681
143 429.00 1500.00 196 656 1.520 10000.000 0.000 -0.681
144 432.00 1500.00 222 591 1.520 10000.000 0.000 -0.681
