# BinNR microsec tot-time (s)  O-Beam AUX Ampl(V) f(Hz) phase(deg) chi(pos)
0 0.00 1500.02 132 438 1.520 10000.000 0.000 1.505
1 3.00 1500.02 265 896 1.520 10000.000 0.000 1.505
2 6.00 1500.02 329 862 1.520 10000.000 0.000 1.505
3 9.00 1500.02 327 893 1.520 10000.000 0.000 1.505
4 12.00 1500.02 327 926 1.520 10000.000 0.000 1.505
5 15.00 1500.02 303 875 1.520 10000.000 0.000 1.505
6 18.00 1500.02 358 1024 1.520 10000.000 0.000 1.505
7 21.00 1500.02 368 972 1.520 10000.000 0.000 1.505
8 24.00 1500.02 365 1142 1.520 10000.000 0.000 1.505
9 27.00 1500.02 375 1076 1.520 10000.000 0.000 1.505
10 30.00 1500.02 431 1079 1.520 10000.000 0.000 1.505
11 33.00 1500.02 410 1066 1.520 10000.000 0.000 1.505
12 36.00 1500.02 424 1063 1.520 10000.000 0.000 1.505
13 39.00 1500.02 394 1054 1.520 10000.000 0.000 1.505
14 42.00 1500.02 414 1031 1.520 10000.000 0.000 1.505
15 45.00 1500.02 381 966 1.520 10000.000 0.000 1.505
16 48.00 1500.02 413 923 1.520 10000.000 0.000 1.505
17 51.00 1500.02 388 873 1.520 10000.000 0.000 1.505
18 54.00 1500.02 375 898 1.520 10000.000 0.000 1.505
19 57.00 1500.02 337 900 1.520 10000.000 0.000 1.505
20 60.00 1500.02 346 966 1.520 10000.000 0.000 1.505
21 63.00 1500.02 287 892 1.520 10000.000 0.000 1.505
22 66.00 1500.02 304 943 1.520 10000.000 0.000 1.505
23 69.00 1500.02 285 976 1.520 10000.000 0.000 1.505
24 72.00 1500.02 274 1059 1.520 10000.000 0.000 1.505
25 75.00 1500.02 268 1111 1.520 10000.000 0.000 1.505
26 78.00 1500.02 254 1189 1.520 10000.000 0.000 1.505
27 81.00 1500.02 236 1248 1.520 10000.000 0.000 1.505
28 84.00 1500.02 262 1374 1.520 10000.000 0.000 1.505
29 87.00 1500.02 257 1337 1.520 10000.000 0.000 1.505
30 90.00 1500.02 246 1321 1.520 10000.000 0.000 1.505
31 93.00 1500.02 268 1331 1.520 10000.000 0.000 1.505
32 96.00 1500.02 279 1467 1.520 10000.000 0.000 1.505
33 99.00 1500.02 278 1377 1.520 10000.000 0.000 1.505
34 102.00 1500.02 285 1347 1.520 10000.000 0.000 1.505
35 105.00 1500.02 310 1288 1.520 10000.000 0.000 1.505
36 108.00 1500.02 323 1339 1.520 10000.000 0.000 1.505
37 111.00 1500.02 300 1249 1.520 10000.000 0.000 1.505
38 114.00 1500.02 324 1277 1.520 10000.000 0.000 1.505
39 117.00 1500.02 403 1261 1.520 10000.000 0.000 1.505
40 120.00 1500.02 373 1177 1.520 10000.000 0.000 1.505
41 123.00 1500.02 370 1161 1.520 10000.000 0.000 1.505
42 126.00 1500.02 371 1077 1.520 10000.000 0.000 1.505
43 129.00 1500.02 410 919 1.520 10000.000 0.000 1.505
44 132.00 1500.02 393 907 1.520 10000.000 0.000 1.505
45 135.00 1500.02 409 843 1.520 10000.000 0.000 1.505
46 138.00 1500.02 384 836 1.520 10000.000 0.000 1.505
47 141.00 1500.02 396 733 1.520 10000.000 0.000 1.505
48 144.00 1500.02 386 764 1.520 10000.000 0.000 1.505
49 147.00 1500.02 349 763 1.520 10000.000 0.000 1.505
50 150.00 1500.02 401 762 1.520 10000.000 0.000 1.505
51 153.00 1500.02 364 741 1.520 10000.000 0.000 1.505
52 156.00 1500.02 336 749 1.520 10000.000 0.000 1.505
53 159.00 1500.02 336 806 1.520 10000.000 0.000 1.505
54 162.00 1500.02 329 868 1.520 10000.000 0.000 1.505
55 165.00 1500.02 301 924 1.520 10000.000 0.000 1.505
56 168.00 1500.02 296 952 1.520 10000.000 0.000 1.505
57 171.00 1500.02 289 1090 1.520 10000.000 0.000 1.505
58 174.00 1500.02 275 1079 1.520 10000.000 0.000 1.505
59 177.00 1500.02 273 1115 1.520 10000.000 0.000 1.505
60 180.00 1500.02 221 1255 1.520 10000.000 0.000 1.505
61 183.00 1500.02 255 1245 1.520 10000.000 0.000 1.505
62 186.00 1500.02 254 1297 1.520 10000.000 0.000 1.505
63 189.00 1500.02 268 1315 1.520 10000.000 0.000 1.505
64 192.00 1500.02 250 1359 1.520 10000.000 0.000 1.505
65 195.00 1500.02 266 1342 1.520 10000.000 0.000 1.505
66 198.00 1500.02 278 1320 1.520 10000.000 0.000 1.505
67 201.00 1500.02 300 1364 1.520 10000.000 0.000 1.505
68 204.00 1500.02 272 1363 1.520 10000.000 0.000 1.505
69 207.00 1500.02 285 1330 1.520 10000.000 0.000 1.505
70 210.00 1500.02 327 1268 1.520 10000.000 0.000 1.505
71 213.00 1500.02 324 1280 1.520 10000.000 0.000 1.505
72 216.00 1500.02 359 1269 1.520 10000.000 0.000 1.505
73 219.00 1500.02 383 1187 1.520 10000.000 0.000 1.505
74 222.00 1500.02 432 1183 1.520 10000.000 0.000 1.505
75 225.00 1500.02 382 1079 1.520 10000.000 0.000 1.505
76 228.00 1500.02 423 1025 1.520 10000.000 0.000 1.505
77 231.00 1500.02 423 921 1.520 10000.000 0.000 1.505
78 234.00 1500.02 418 872 1.520 10000.000 0.000 1.505
79 237.00 1500.02 392 849 1.520 10000.000 0.000 1.505
80 240.00 1500.02 373 809 1.520 10000.000 0.000 1.505
81 243.00 1500.02 388 751 1.520 10000.000 0.000 1.505
82 246.00 1500.02 421 762 1.520 10000.000 0.000 1.505
83 249.00 1500.02 393 763 1.520 10000.000 0.000 1.505
84 252.00 1500.02 361 736 1.520 10000.000 0.000 1.505
85 255.00 1500.02 348 790 1.520 10000.000 0.000 1.505
86 258.00 1500.02 338 813 1.520 10000.000 0.000 1.505
87 261.00 1500.02 320 838 1.520 10000.000 0.000 1.505
88 264.00 1500.02 318 923 1.520 10000.000 0.000 1.505
89 267.00 1500.02 268 983 1.520 10000.000 0.000 1.505
90 270.00 1500.02 309 1043 1.520 10000.000 0.000 1.505
91 273.00 1500.02 297 1091 1.520 10000.000 0.000 1.505
92 276.00 1500.02 277 1213 1.520 10000.000 0.000 1.505
93 279.00 1500.02 236 1230 1.520 10000.000 0.000 1.505
94 282.00 1500.02 294 1250 1.520 10000.000 0.000 1.505
95 285.00 1500.02 261 1273 1.520 10000.000 0.000 1.505
96 288.00 1500.02 289 1361 1.520 10000.000 0.000 1.505
97 291.00 1500.02 277 1388 1.520 10000.000 0.000 1.505
98 294.00 1500.02 319 1357 1.520 10000.000 0.000 1.505
99 297.00 1500.02 324 1352 1.520 10000.000 0.000 1.505
100 300.00 1500.02 323 1382 1.520 10000.000 0.000 1.505
101 303.00 1500.02 289 1330 1.520 10000.000 0.000 1.505
102 306.00 1500.02 335 1425 1.520 10000.000 0.000 1.505
103 309.00 1500.02 302 1314 1.520 10000.000 0.000 1.505
104 312.00 1500.02 293 1267 1.520 10000.000 0.000 1.505
105 315.00 1500.02 292 1223 1.520 10000.000 0.000 1.505
106 318.00 1500.02 269 1229 1.520 10000.000 0.000 1.505
107 321.00 1500.02 292 1147 1.520 10000.000 0.000 1.505
108 324.00 1500.02 269 1131 1.520 10000.000 0.000 1.505
109 327.00 1500.02 318 1026 1.520 10000.000 0.000 1.505
110 330.00 1500.02 313 986 1.520 10000.000 0.000 1.505
111 333.00 1500.02 302 847 1.520 10000.000 0.000 1.505
112 336.00 1500.02 299 872 1.520 10000.000 0.000 1.505
113 339.00 1500.02 309 740 1.520 10000.000 0.000 1.505
114 342.00 1500.02 364 737 1.520 10000.000 0.000 1.505
115 345.00 1500.02 317 765 1.520 10000.000 0.000 1.505
116 348.00 1500.02 355 778 1.520 10000.000 0.000 1.505
117 351.00 1500.02 365 748 1.520 10000.000 0.000 1.505
118 354.00 1500.02 395 742 1.520 10000.000 0.000 1.505
119 357.00 1500.02 398 771 1.520 10000.000 0.000 1.505
120 360.00 1500.02 379 819 1.520 10000.000 0.000 1.505
121 363.00 1500.02 384 866 1.520 10000.000 0.000 1.505
122 366.00 1500.02 435 897 1.520 10000.000 0.000 1.505
123 369.00 1500.02 412 1076 1.520 10000.000 0.000 1.505
124 372.00 1500.02 438 1028 1.520 10000.000 0.000 1.505
125 375.00 1500.02 386 1145 1.520 10000.000 0.000 1.505
126 378.00 1500.02 396 1217 1.520 10000.000 0.000 1.505
127 381.00 1500.02 377 1218 1.520 10000.000 0.000 1.505
128 384.00 1500.02 401 1360 1.520 10000.000 0.000 1.505
129 387.00 1500.02 333 1302 1.520 10000.000 0.000 1.505
130 390.00 1500.02 349 1333 1.520 10000.000 0.000 1.505
131 393.00 1500.02 357 1301 1.520 10000.000 0.000 1.505
132 396.00 1500.02 335 1372 1.520 10000.000 0.000 1.505
133 399.00 1500.02 311 1382 1.520 10000.000 0.000 1.505
134 402.00 1500.02 291 1333 1.520 10000.000 0.000 1.505
135 405.00 1500.02 245 1289 1.520 10000.000 0.000 1.505
136 408.00 1500.02 254 1342 1.520 10000.000 0.000 1.505
137 411.00 1500.02 238 1234 1.520 10000.000 0.000 1.505
138 414.00 1500.02 223 1321 1.520 10000.000 0.000 1.505
139 417.00 1500.02 236 1197 1.520 10000.000 0.000 1.505
140 420.00 1500.02 244 1199 1.520 10000.000 0.000 1.505
141 423.00 1500.02 258 1050 1.520 10000.000 0.000 1.505
142 426.00 1500.02 252 1071 1.520 10000.000 0.000 1.505
143 429.00 1500.02 260 1004 1.520 10000.000 0.000 1.505
144 432.00 1500.02 288 930 1.520 10000.000 0.000 1.505
