# BinNR microsec tot-time (s)  O-Beam AUX Ampl(V) f(Hz) phase(deg) chi(pos)
0 0.00 1500.00 111 179 1.520 10000.000 0.000 -1.340
1 3.00 1500.00 211 418 1.520 10000.000 0.000 -1.340
2 6.00 1500.00 208 398 1.520 10000.000 0.000 -1.340
3 9.00 1500.00 193 386 1.520 10000.000 0.000 -1.340
4 12.00 1500.00 169 334 1.520 10000.000 0.000 -1.340
5 15.00 1500.00 177 320 1.520 10000.000 0.000 -1.340
6 18.00 1500.00 175 279 1.520 10000.000 0.000 -1.340
7 21.00 1500.00 162 297 1.520 10000.000 0.000 -1.340
8 24.00 1500.00 156 275 1.520 10000.000 0.000 -1.340
9 27.00 1500.00 159 248 1.520 10000.000 0.000 -1.340
10 30.00 1500.00 146 272 1.520 10000.000 0.000 -1.340
11 33.00 1500.00 152 204 1.520 10000.000 0.000 -1.340
12 36.00 1500.00 155 228 1.520 10000.000 0.000 -1.340
13 39.00 1500.00 156 226 1.520 10000.000 0.000 -1.340
14 42.00 1500.00 123 267 1.520 10000.000 0.000 -1.340
15 45.00 1500.00 141 285 1.520 10000.000 0.000 -1.340
16 48.00 1500.00 162 291 1.520 10000.000 0.000 -1.340
17 51.00 1500.00 155 353 1.520 10000.000 0.000 -1.340
18 54.00 1500.00 156 347 1.520 10000.000 0.000 -1.340
19 57.00 1500.00 162 352 1.520 10000.000 0.000 -1.340
20 60.00 1500.00 184 355 1.520 10000.000 0.000 -1.340
21 63.00 1500.00 202 319 1.520 10000.000 0.000 -1.340
22 66.00 1500.00 190 349 1.520 10000.000 0.000 -1.340
23 69.00 1500.00 203 280 1.520 10000.000 0.000 -1.340
24 72.00 1500.00 219 239 1.520 10000.000 0.000 -1.340
25 75.00 1500.00 239 204 1.520 10000.000 0.000 -1.340
26 78.00 1500.00 256 193 1.520 10000.000 0.000 -1.340
27 81.00 1500.00 231 165 1.520 10000.000 0.000 -1.340
28 84.00 1500.00 249 173 1.520 10000.000 0.000 -1.340
29 87.00 1500.00 257 202 1.520 10000.000 0.000 -1.340
30 90.00 1500.00 275 165 1.520 10000.000 0.000 -1.340
31 93.00 1500.00 234 203 1.520 10000.000 0.000 -1.340
32 96.00 1500.00 241 188 1.520 10000.000 0.000 -1.340
33 99.00 1500.00 225 220 1.520 10000.000 0.000 -1.340
34 102.00 1500.00 222 200 1.520 10000.000 0.000 -1.340
35 105.00 1500.00 170 218 1.520 10000.000 0.000 -1.340
36 108.00 1500.00 202 167 1.520 10000.000 0.000 -1.340
37 111.00 1500.00 199 199 1.520 10000.000 0.000 -1.340
38 114.00 1500.00 192 195 1.520 10000.000 0.000 -1.340
39 117.00 1500.00 187 201 1.520 10000.000 0.000 -1.340
40 120.00 1500.00 172 211 1.520 10000.000 0.000 -1.340
41 123.00 1500.00 165 246 1.520 10000.000 0.000 -1.340
42 126.00 1500.00 159 273 1.520 10000.000 0.000 -1.340
43 129.00 1500.00 156 306 1.520 10000.000 0.000 -1.340
44 132.00 1500.00 142 342 1.520 10000.000 0.000 -1.340
45 135.00 1500.00 135 402 1.520 10000.000 0.000 -1.340
46 138.00 1500.00 157 387 1.520 10000.000 0.000 -1.340
47 141.00 1500.00 148 433 1.520 10000.000 0.000 -1.340
48 144.00 1500.00 130 493 1.520 10000.000 0.000 -1.340
49 147.00 1500.00 144 441 1.520 10000.000 0.000 -1.340
50 150.00 1500.00 138 473 1.520 10000.000 0.000 -1.340
51 153.00 1500.00 175 441 1.520 10000.000 0.000 -1.340
52 156.00 1500.00 176 425 1.520 10000.000 0.000 -1.340
53 159.00 1500.00 155 406 1.520 10000.000 0.000 -1.340
54 162.00 1500.00 173 382 1.520 10000.000 0.000 -1.340
55 165.00 1500.00 206 320 1.520 10000.000 0.000 -1.340
56 168.00 1500.00 214 316 1.520 10000.000 0.000 -1.340
57 171.00 1500.00 220 269 1.520 10000.000 0.000 -1.340
58 174.00 1500.00 213 190 1.520 10000.000 0.000 -1.340
59 177.00 1500.00 225 211 1.520 10000.000 0.000 -1.340
60 180.00 1500.00 257 193 1.520 10000.000 0.000 -1.340
61 183.00 1500.00 247 180 1.520 10000.000 0.000 -1.340
62 186.00 1500.00 295 173 1.520 10000.000 0.000 -1.340
63 189.00 1500.00 253 174 1.520 10000.000 0.000 -1.340
64 192.00 1500.00 284 188 1.520 10000.000 0.000 -1.340
65 195.00 1500.00 255 198 1.520 10000.000 0.000 -1.340
66 198.00 1500.00 246 187 1.520 10000.000 0.000 -1.340
67 201.00 1500.00 233 206 1.520 10000.000 0.000 -1.340
68 204.00 1500.00 250 189 1.520 10000.000 0.000 -1.340
69 207.00 1500.00 218 180 1.520 10000.000 0.000 -1.340
70 210.00 1500.00 210 175 1.520 10000.000 0.000 -1.340
71 213.00 1500.00 199 179 1.520 10000.000 0.000 -1.340
72 216.00 1500.00 174 196 1.520 10000.000 0.000 -1.340
73 219.00 1500.00 154 212 1.520 10000.000 0.000 -1.340
74 222.00 1500.00 159 210 1.520 10000.000 0.000 -1.340
75 225.00 1500.00 192 263 1.520 10000.000 0.000 -1.340
76 228.00 1500.00 157 301 1.520 10000.000 0.000 -1.340
77 231.00 1500.00 160 330 1.520 10000.000 0.000 -1.340
78 234.00 1500.00 158 360 1.520 10000.000 0.000 -1.340
79 237.00 1500.00 142 372 1.520 10000.000 0.000 -1.340
80 240.00 1500.00 157 408 1.520 10000.000 0.000 -1.340
81 243.00 1500.00 154 459 1.520 10000.000 0.000 -1.340
82 246.00 1500.00 151 497 1.520 10000.000 0.000 -1.340
83 249.00 1500.00 132 468 1.520 10000.000 0.000 -1.340
84 252.00 1500.00 151 514 1.520 10000.000 0.000 -1.340
85 255.00 1500.00 155 441 1.520 10000.000 0.000 -1.340
86 258.00 1500.00 166 410 1.520 10000.000 0.000 -1.340
87 261.00 1500.00 177 393 1.520 10000.000 0.000 -1.340
88 264.00 1500.00 203 340 1.520 10000.000 0.000 -1.340
89 267.00 1500.00 213 324 1.520 10000.000 0.000 -1.340
90 270.00 1500.00 205 273 1.520 10000.000 0.000 -1.340
91 273.00 1500.00 230 238 1.520 10000.000 0.000 -1.340
92 276.00 1500.00 209 207 1.520 10000.000 0.000 -1.340
93 279.00 1500.00 238 179 1.520 10000.000 0.000 -1.340
94 282.00 1500.00 225 152 1.520 10000.000 0.000 -1.340
95 285.00 1500.00 221 188 1.520 10000.000 0.000 -1.340
96 288.00 1500.00 205 174 1.520 10000.000 0.000 -1.340
97 291.00 1500.00 222 193 1.520 10000.000 0.000 -1.340
98 294.00 1500.00 196 193 1.520 10000.000 0.000 -1.340
99 297.00 1500.00 211 205 1.520 10000.000 0.000 -1.340
100 300.00 1500.00 197 223 1.520 10000.000 0.000 -1.340
101 303.00 1500.00 200 186 1.520 10000.000 0.000 -1.340
102 306.00 1500.00 180 175 1.520 10000.000 0.000 -1.340
103 309.00 1500.00 208 187 1.520 10000.000 0.000 -1.340
104 312.00 1500.00 201 176 1.520 10000.000 0.000 -1.340
105 315.00 1500.00 218 182 1.520 10000.000 0.000 -1.340
106 318.00 1500.00 229 189 1.520 10000.000 0.000 -1.340
107 321.00 1500.00 194 230 1.520 10000.000 0.000 -1.340
108 324.00 1500.00 237 245 1.520 10000.000 0.000 -1.340
109 327.00 1500.00 226 298 1.520 10000.000 0.000 -1.340
110 330.00 1500.00 240 333 1.520 10000.000 0.000 -1.340
111 333.00 1500.00 211 321 1.520 10000.000 0.000 -1.340
112 336.00 1500.00 197 419 1.520 10000.000 0.000 -1.340
113 339.00 1500.00 218 430 1.520 10000.000 0.000 -1.340
114 342.00 1500.00 197 467 1.520 10000.000 0.000 -1.340
115 345.00 1500.00 185 470 1.520 10000.000 0.000 -1.340
116 348.00 1500.00 193 458 1.520 10000.000 0.000 -1.340
117 351.00 1500.00 162 470 1.520 10000.000 0.000 -1.340
118 354.00 1500.00 147 441 1.520 10000.000 0.000 -1.340
119 357.00 1500.00 168 404 1.520 10000.000 0.000 -1.340
120 360.00 1500.00 172 391 1.520 10000.000 0.000 -1.340
121 363.00 1500.00 157 354 1.520 10000.000 0.000 -1.340
122 366.00 1500.00 155 348 1.520 10000.000 0.000 -1.340
123 369.00 1500.00 142 303 1.520 10000.000 0.000 -1.340
124 372.00 1500.00 133 254 1.520 10000.000 0.000 -1.340
125 375.00 1500.00 136 188 1.520 10000.000 0.000 -1.340
126 378.00 1500.00 150 188 1.520 10000.000 0.000 -1.340
127 381.00 1500.00 165 199 1.520 10000.000 0.000 -1.340
128 384.00 1500.00 146 172 1.520 10000.000 0.000 -1.340
129 387.00 1500.00 154 187 1.520 10000.000 0.000 -1.340
130 390.00 1500.00 181 192 1.520 10000.000 0.000 -1.340
131 393.00 1500.00 186 175 1.520 10000.000 0.000 -1.340
132 396.00 1500.00 192 209 1.520 10000.000 0.000 -1.340
133 399.00 1500.00 176 171 1.520 10000.000 0.000 -1.340
134 402.00 1500.00 233 238 1.520 10000.000 0.000 -1.340
135 405.00 1500.00 195 191 1.520 10000.000 0.000 -1.340
136 408.00 1500.00 235 220 1.520 10000.000 0.000 -1.340
137 411.00 1500.00 256 169 1.520 10000.000 0.000 -1.340
138 414.00 1500.00 227 197 1.520 10000.000 0.000 -1.340
139 417.00 1500.00 210 224 1.520 10000.000 0.000 -1.340
140 420.00 1500.00 258 223 1.520 10000.000 0.000 -1.340
141 423.00 1500.00 251 233 1.520 10000.000 0.000 -1.340
142 426.00 1500.00 260 241 1.520 10000.000 0.000 -1.340
143 429.00 1500.00 236 270 1.520 10000.000 0.000 -1.340
144 432.00 1500.00 244 362 1.520 10000.000 0.000 -1.340
