# BinNR microsec tot-time (s)  O-Beam AUX Ampl(V) f(Hz) phase(deg) chi(pos)
0 0.00 1500.01 202 492 1.520 10000.000 0.000 0.319
1 3.00 1500.01 391 1060 1.520 10000.000 0.000 0.319
2 6.00 1500.01 359 1105 1.520 10000.000 0.000 0.319
3 9.00 1500.01 368 1054 1.520 10000.000 0.000 0.319
4 12.00 1500.01 306 1054 1.520 10000.000 0.000 0.319
5 15.00 1500.01 320 978 1.520 10000.000 0.000 0.319
6 18.00 1500.01 328 982 1.520 10000.000 0.000 0.319
7 21.00 1500.01 300 858 1.520 10000.000 0.000 0.319
8 24.00 1500.01 257 868 1.520 10000.000 0.000 0.319
9 27.00 1500.01 270 905 1.520 10000.000 0.000 0.319
10 30.00 1500.01 276 836 1.520 10000.000 0.000 0.319
11 33.00 1500.01 263 778 1.520 10000.000 0.000 0.319
12 36.00 1500.01 268 808 1.520 10000.000 0.000 0.319
13 39.00 1500.01 264 811 1.520 10000.000 0.000 0.319
14 42.00 1500.01 250 887 1.520 10000.000 0.000 0.319
15 45.00 1500.01 274 853 1.520 10000.000 0.000 0.319
16 48.00 1500.01 285 1009 1.520 10000.000 0.000 0.319
17 51.00 1500.01 290 997 1.520 10000.000 0.000 0.319
18 54.00 1500.01 314 1079 1.520 10000.000 0.000 0.319
19 57.00 1500.01 313 1002 1.520 10000.000 0.000 0.319
20 60.00 1500.01 340 1055 1.520 10000.000 0.000 0.319
21 63.00 1500.01 350 996 1.520 10000.000 0.000 0.319
22 66.00 1500.01 402 982 1.520 10000.000 0.000 0.319
23 69.00 1500.01 411 979 1.520 10000.000 0.000 0.319
24 72.00 1500.01 379 855 1.520 10000.000 0.000 0.319
25 75.00 1500.01 418 766 1.520 10000.000 0.000 0.319
26 78.00 1500.01 436 706 1.520 10000.000 0.000 0.319
27 81.00 1500.01 405 645 1.520 10000.000 0.000 0.319
28 84.00 1500.01 425 607 1.520 10000.000 0.000 0.319
29 87.00 1500.01 392 569 1.520 10000.000 0.000 0.319
30 90.00 1500.01 371 479 1.520 10000.000 0.000 0.319
31 93.00 1500.01 416 456 1.520 10000.000 0.000 0.319
32 96.00 1500.01 417 444 1.520 10000.000 0.000 0.319
33 99.00 1500.01 404 413 1.520 10000.000 0.000 0.319
34 102.00 1500.01 372 447 1.520 10000.000 0.000 0.319
35 105.00 1500.01 358 508 1.520 10000.000 0.000 0.319
36 108.00 1500.01 337 533 1.520 10000.000 0.000 0.319
37 111.00 1500.01 334 525 1.520 10000.000 0.000 0.319
38 114.00 1500.01 328 628 1.520 10000.000 0.000 0.319
39 117.00 1500.01 303 638 1.520 10000.000 0.000 0.319
40 120.00 1500.01 284 691 1.520 10000.000 0.000 0.319
41 123.00 1500.01 289 800 1.520 10000.000 0.000 0.319
42 126.00 1500.01 288 852 1.520 10000.000 0.000 0.319
43 129.00 1500.01 275 923 1.520 10000.000 0.000 0.319
44 132.00 1500.01 259 1024 1.520 10000.000 0.000 0.319
45 135.00 1500.01 271 1049 1.520 10000.000 0.000 0.319
46 138.00 1500.01 250 1134 1.520 10000.000 0.000 0.319
47 141.00 1500.01 271 1166 1.520 10000.000 0.000 0.319
48 144.00 1500.01 272 1197 1.520 10000.000 0.000 0.319
49 147.00 1500.01 282 1170 1.520 10000.000 0.000 0.319
50 150.00 1500.01 317 1176 1.520 10000.000 0.000 0.319
51 153.00 1500.01 279 1174 1.520 10000.000 0.000 0.319
52 156.00 1500.01 339 1128 1.520 10000.000 0.000 0.319
53 159.00 1500.01 336 1095 1.520 10000.000 0.000 0.319
54 162.00 1500.01 398 1050 1.520 10000.000 0.000 0.319
55 165.00 1500.01 343 982 1.520 10000.000 0.000 0.319
56 168.00 1500.01 388 938 1.520 10000.000 0.000 0.319
57 171.00 1500.01 424 878 1.520 10000.000 0.000 0.319
58 174.00 1500.01 418 837 1.520 10000.000 0.000 0.319
59 177.00 1500.01 410 706 1.520 10000.000 0.000 0.319
60 180.00 1500.01 402 596 1.520 10000.000 0.000 0.319
61 183.00 1500.01 401 588 1.520 10000.000 0.000 0.319
62 186.00 1500.01 417 521 1.520 10000.000 0.000 0.319
63 189.00 1500.01 407 447 1.520 10000.000 0.000 0.319
64 192.00 1500.01 380 453 1.520 10000.000 0.000 0.319
65 195.00 1500.01 382 418 1.520 10000.000 0.000 0.319
66 198.00 1500.01 411 429 1.520 10000.000 0.000 0.319
67 201.00 1500.01 387 431 1.520 10000.000 0.000 0.319
68 204.00 1500.01 373 416 1.520 10000.000 0.000 0.319
69 207.00 1500.01 358 473 1.520 10000.000 0.000 0.319
70 210.00 1500.01 386 504 1.520 10000.000 0.000 0.319
71 213.00 1500.01 318 586 1.520 10000.000 0.000 0.319
72 216.00 1500.01 332 611 1.520 10000.000 0.000 0.319
73 219.00 1500.01 288 666 1.520 10000.000 0.000 0.319
74 222.00 1500.01 290 762 1.520 10000.000 0.000 0.319
75 225.00 1500.01 280 815 1.520 10000.000 0.000 0.319
76 228.00 1500.01 311 956 1.520 10000.000 0.000 0.319
77 231.00 1500.01 280 1021 1.520 10000.000 0.000 0.319
78 234.00 1500.01 266 1105 1.520 10000.000 0.000 0.319
79 237.00 1500.01 281 1092 1.520 10000.000 0.000 0.319
80 240.00 1500.01 276 1084 1.520 10000.000 0.000 0.319
81 243.00 1500.01 253 1135 1.520 10000.000 0.000 0.319
82 246.00 1500.01 295 1168 1.520 10000.000 0.000 0.319
83 249.00 1500.01 288 1148 1.520 10000.000 0.000 0.319
84 252.00 1500.01 336 1142 1.520 10000.000 0.000 0.319
85 255.00 1500.01 306 1133 1.520 10000.000 0.000 0.319
86 258.00 1500.01 311 1097 1.520 10000.000 0.000 0.319
87 261.00 1500.01 338 1019 1.520 10000.000 0.000 0.319
88 264.00 1500.01 361 1033 1.520 10000.000 0.000 0.319
89 267.00 1500.01 384 933 1.520 10000.000 0.000 0.319
90 270.00 1500.01 374 874 1.520 10000.000 0.000 0.319
91 273.00 1500.01 426 817 1.520 10000.000 0.000 0.319
92 276.00 1500.01 342 760 1.520 10000.000 0.000 0.319
93 279.00 1500.01 340 637 1.520 10000.000 0.000 0.319
94 282.00 1500.01 417 596 1.520 10000.000 0.000 0.319
95 285.00 1500.01 388 564 1.520 10000.000 0.000 0.319
96 288.00 1500.01 396 489 1.520 10000.000 0.000 0.319
97 291.00 1500.01 397 451 1.520 10000.000 0.000 0.319
98 294.00 1500.01 384 466 1.520 10000.000 0.000 0.319
99 297.00 1500.01 358 454 1.520 10000.000 0.000 0.319
100 300.00 1500.01 357 450 1.520 10000.000 0.000 0.319
101 303.00 1500.01 357 457 1.520 10000.000 0.000 0.319
102 306.00 1500.01 367 436 1.520 10000.000 0.000 0.319
103 309.00 1500.01 374 511 1.520 10000.000 0.000 0.319
104 312.00 1500.01 373 580 1.520 10000.000 0.000 0.319
105 315.00 1500.01 372 585 1.520 10000.000 0.000 0.319
106 318.00 1500.01 389 641 1.520 10000.000 0.000 0.319
107 321.00 1500.01 400 717 1.520 10000.000 0.000 0.319
108 324.00 1500.01 413 833 1.520 10000.000 0.000 0.319
109 327.00 1500.01 373 905 1.520 10000.000 0.000 0.319
110 330.00 1500.01 369 959 1.520 10000.000 0.000 0.319
111 333.00 1500.01 378 999 1.520 10000.000 0.000 0.319
112 336.00 1500.01 373 1103 1.520 10000.000 0.000 0.319
113 339.00 1500.01 387 1160 1.520 10000.000 0.000 0.319
114 342.00 1500.01 362 1139 1.520 10000.000 0.000 0.319
115 345.00 1500.01 359 1127 1.520 10000.000 0.000 0.319
116 348.00 1500.01 368 1133 1.520 10000.000 0.000 0.319
117 351.00 1500.01 283 1151 1.520 10000.000 0.000 0.319
118 354.00 1500.01 264 1177 1.520 10000.000 0.000 0.319
119 357.00 1500.01 308 1145 1.520 10000.000 0.000 0.319
120 360.00 1500.01 297 1073 1.520 10000.000 0.000 0.319
121 363.00 1500.01 282 1001 1.520 10000.000 0.000 0.319
122 366.00 1500.01 284 1070 1.520 10000.000 0.000 0.319
123 369.00 1500.01 257 918 1.520 10000.000 0.000 0.319
124 372.00 1500.01 253 898 1.520 10000.000 0.000 0.319
125 375.00 1500.01 270 721 1.520 10000.000 0.000 0.319
126 378.00 1500.01 261 725 1.520 10000.000 0.000 0.319
127 381.00 1500.01 261 630 1.520 10000.000 0.000 0.319
128 384.00 1500.01 265 579 1.520 10000.000 0.000 0.319
129 387.00 1500.01 287 502 1.520 10000.000 0.000 0.319
130 390.00 1500.01 316 506 1.520 10000.000 0.000 0.319
131 393.00 1500.01 354 450 1.520 10000.000 0.000 0.319
132 396.00 1500.01 351 431 1.520 10000.000 0.000 0.319
133 399.00 1500.01 370 411 1.520 10000.000 0.000 0.319
134 402.00 1500.01 368 461 1.520 10000.000 0.000 0.319
135 405.00 1500.01 404 479 1.520 10000.000 0.000 0.319
136 408.00 1500.01 369 532 1.520 10000.000 0.000 0.319
137 411.00 1500.01 390 537 1.520 10000.000 0.000 0.319
138 414.00 1500.01 430 611 1.520 10000.000 0.000 0.319
139 417.00 1500.01 430 628 1.520 10000.000 0.000 0.319
140 420.00 1500.01 433 697 1.520 10000.000 0.000 0.319
141 423.00 1500.01 378 749 1.520 10000.000 0.000 0.319
142 426.00 1500.01 440 943 1.520 10000.000 0.000 0.319
143 429.00 1500.01 401 858 1.520 10000.000 0.000 0.319
144 432.00 1500.01 404 1009 1.520 10000.000 0.000 0.319
