# BinNR microsec tot-time (s)  O-Beam AUX Ampl(V) f(Hz) phase(deg) chi(pos)
0 0.00 1500.03 92 287 1.520 10000.000 0.000 1.329
1 3.00 1500.03 210 560 1.520 10000.000 0.000 1.329
2 6.00 1500.03 204 517 1.520 10000.000 0.000 1.329
3 9.00 1500.03 211 546 1.520 10000.000 0.000 1.329
4 12.00 1500.03 261 577 1.520 10000.000 0.000 1.329
5 15.00 1500.03 278 602 1.520 10000.000 0.000 1.329
6 18.00 1500.03 307 610 1.520 10000.000 0.000 1.329
7 21.00 1500.03 297 725 1.520 10000.000 0.000 1.329
8 24.00 1500.03 289 746 1.520 10000.000 0.000 1.329
9 27.00 1500.03 308 741 1.520 10000.000 0.000 1.329
10 30.00 1500.03 323 744 1.520 10000.000 0.000 1.329
11 33.00 1500.03 344 804 1.520 10000.000 0.000 1.329
12 36.00 1500.03 337 814 1.520 10000.000 0.000 1.329
13 39.00 1500.03 328 765 1.520 10000.000 0.000 1.329
14 42.00 1500.03 341 738 1.520 10000.000 0.000 1.329
15 45.00 1500.03 339 744 1.520 10000.000 0.000 1.329
16 48.00 1500.03 283 619 1.520 10000.000 0.000 1.329
17 51.00 1500.03 278 611 1.520 10000.000 0.000 1.329
18 54.00 1500.03 280 578 1.520 10000.000 0.000 1.329
19 57.00 1500.03 245 591 1.520 10000.000 0.000 1.329
20 60.00 1500.03 243 582 1.520 10000.000 0.000 1.329
21 63.00 1500.03 227 603 1.520 10000.000 0.000 1.329
22 66.00 1500.03 203 609 1.520 10000.000 0.000 1.329
23 69.00 1500.03 201 727 1.520 10000.000 0.000 1.329
24 72.00 1500.03 198 781 1.520 10000.000 0.000 1.329
25 75.00 1500.03 201 849 1.520 10000.000 0.000 1.329
26 78.00 1500.03 207 946 1.520 10000.000 0.000 1.329
27 81.00 1500.03 154 1005 1.520 10000.000 0.000 1.329
28 84.00 1500.03 191 1026 1.520 10000.000 0.000 1.329
29 87.00 1500.03 181 1070 1.520 10000.000 0.000 1.329
30 90.00 1500.03 215 1126 1.520 10000.000 0.000 1.329
31 93.00 1500.03 188 1130 1.520 10000.000 0.000 1.329
32 96.00 1500.03 218 1208 1.520 10000.000 0.000 1.329
33 99.00 1500.03 201 1212 1.520 10000.000 0.000 1.329
34 102.00 1500.03 211 1152 1.520 10000.000 0.000 1.329
35 105.00 1500.03 218 1134 1.520 10000.000 0.000 1.329
36 108.00 1500.03 256 1124 1.520 10000.000 0.000 1.329
37 111.00 1500.03 241 1055 1.520 10000.000 0.000 1.329
38 114.00 1500.03 273 966 1.520 10000.000 0.000 1.329
39 117.00 1500.03 283 982 1.520 10000.000 0.000 1.329
40 120.00 1500.03 289 862 1.520 10000.000 0.000 1.329
41 123.00 1500.03 282 823 1.520 10000.000 0.000 1.329
42 126.00 1500.03 322 742 1.520 10000.000 0.000 1.329
43 129.00 1500.03 303 636 1.520 10000.000 0.000 1.329
44 132.00 1500.03 341 631 1.520 10000.000 0.000 1.329
45 135.00 1500.03 328 550 1.520 10000.000 0.000 1.329
46 138.00 1500.03 371 526 1.520 10000.000 0.000 1.329
47 141.00 1500.03 327 490 1.520 10000.000 0.000 1.329
48 144.00 1500.03 332 452 1.520 10000.000 0.000 1.329
49 147.00 1500.03 320 482 1.520 10000.000 0.000 1.329
50 150.00 1500.03 306 457 1.520 10000.000 0.000 1.329
51 153.00 1500.03 275 435 1.520 10000.000 0.000 1.329
52 156.00 1500.03 292 456 1.520 10000.000 0.000 1.329
53 159.00 1500.03 252 504 1.520 10000.000 0.000 1.329
54 162.00 1500.03 239 536 1.520 10000.000 0.000 1.329
55 165.00 1500.03 245 614 1.520 10000.000 0.000 1.329
56 168.00 1500.03 226 673 1.520 10000.000 0.000 1.329
57 171.00 1500.03 205 772 1.520 10000.000 0.000 1.329
58 174.00 1500.03 207 830 1.520 10000.000 0.000 1.329
59 177.00 1500.03 205 914 1.520 10000.000 0.000 1.329
60 180.00 1500.03 215 932 1.520 10000.000 0.000 1.329
61 183.00 1500.03 151 1004 1.520 10000.000 0.000 1.329
62 186.00 1500.03 172 1088 1.520 10000.000 0.000 1.329
63 189.00 1500.03 178 1130 1.520 10000.000 0.000 1.329
64 192.00 1500.03 178 1145 1.520 10000.000 0.000 1.329
65 195.00 1500.03 171 1154 1.520 10000.000 0.000 1.329
66 198.00 1500.03 219 1170 1.520 10000.000 0.000 1.329
67 201.00 1500.03 212 1152 1.520 10000.000 0.000 1.329
68 204.00 1500.03 225 1077 1.520 10000.000 0.000 1.329
69 207.00 1500.03 216 1121 1.520 10000.000 0.000 1.329
70 210.00 1500.03 235 1077 1.520 10000.000 0.000 1.329
71 213.00 1500.03 245 1065 1.520 10000.000 0.000 1.329
72 216.00 1500.03 291 1008 1.520 10000.000 0.000 1.329
73 219.00 1500.03 241 892 1.520 10000.000 0.000 1.329
74 222.00 1500.03 323 840 1.520 10000.000 0.000 1.329
75 225.00 1500.03 310 790 1.520 10000.000 0.000 1.329
76 228.00 1500.03 313 741 1.520 10000.000 0.000 1.329
77 231.00 1500.03 325 672 1.520 10000.000 0.000 1.329
78 234.00 1500.03 337 589 1.520 10000.000 0.000 1.329
79 237.00 1500.03 314 491 1.520 10000.000 0.000 1.329
80 240.00 1500.03 316 495 1.520 10000.000 0.000 1.329
81 243.00 1500.03 327 436 1.520 10000.000 0.000 1.329
82 246.00 1500.03 290 427 1.520 10000.000 0.000 1.329
83 249.00 1500.03 327 434 1.520 10000.000 0.000 1.329
84 252.00 1500.03 297 476 1.520 10000.000 0.000 1.329
85 255.00 1500.03 282 491 1.520 10000.000 0.000 1.329
86 258.00 1500.03 259 484 1.520 10000.000 0.000 1.329
87 261.00 1500.03 234 529 1.520 10000.000 0.000 1.329
88 264.00 1500.03 256 601 1.520 10000.000 0.000 1.329
89 267.00 1500.03 233 673 1.520 10000.000 0.000 1.329
90 270.00 1500.03 213 688 1.520 10000.000 0.000 1.329
91 273.00 1500.03 205 794 1.520 10000.000 0.000 1.329
92 276.00 1500.03 195 828 1.520 10000.000 0.000 1.329
93 279.00 1500.03 204 952 1.520 10000.000 0.000 1.329
94 282.00 1500.03 187 1018 1.520 10000.000 0.000 1.329
95 285.00 1500.03 220 1051 1.520 10000.000 0.000 1.329
96 288.00 1500.03 211 1125 1.520 10000.000 0.000 1.329
97 291.00 1500.03 216 1122 1.520 10000.000 0.000 1.329
98 294.00 1500.03 211 1154 1.520 10000.000 0.000 1.329
99 297.00 1500.03 260 1133 1.520 10000.000 0.000 1.329
100 300.00 1500.03 246 1164 1.520 10000.000 0.000 1.329
101 303.00 1500.03 215 1176 1.520 10000.000 0.000 1.329
102 306.00 1500.03 248 1131 1.520 10000.000 0.000 1.329
103 309.00 1500.03 261 1075 1.520 10000.000 0.000 1.329
104 312.00 1500.03 215 1059 1.520 10000.000 0.000 1.329
105 315.00 1500.03 205 978 1.520 10000.000 0.000 1.329
106 318.00 1500.03 215 1004 1.520 10000.000 0.000 1.329
107 321.00 1500.03 236 811 1.520 10000.000 0.000 1.329
108 324.00 1500.03 181 756 1.520 10000.000 0.000 1.329
109 327.00 1500.03 221 684 1.520 10000.000 0.000 1.329
110 330.00 1500.03 222 628 1.520 10000.000 0.000 1.329
111 333.00 1500.03 187 602 1.520 10000.000 0.000 1.329
112 336.00 1500.03 227 554 1.520 10000.000 0.000 1.329
113 339.00 1500.03 207 482 1.520 10000.000 0.000 1.329
114 342.00 1500.03 247 448 1.520 10000.000 0.000 1.329
115 345.00 1500.03 265 439 1.520 10000.000 0.000 1.329
116 348.00 1500.03 285 449 1.520 10000.000 0.000 1.329
117 351.00 1500.03 260 469 1.520 10000.000 0.000 1.329
118 354.00 1500.03 315 461 1.520 10000.000 0.000 1.329
119 357.00 1500.03 317 515 1.520 10000.000 0.000 1.329
120 360.00 1500.03 312 520 1.520 10000.000 0.000 1.329
121 363.00 1500.03 314 595 1.520 10000.000 0.000 1.329
122 366.00 1500.03 331 670 1.520 10000.000 0.000 1.329
123 369.00 1500.03 297 674 1.520 10000.000 0.000 1.329
124 372.00 1500.03 354 738 1.520 10000.000 0.000 1.329
125 375.00 1500.03 297 925 1.520 10000.000 0.000 1.329
126 378.00 1500.03 334 963 1.520 10000.000 0.000 1.329
127 381.00 1500.03 338 981 1.520 10000.000 0.000 1.329
128 384.00 1500.03 298 1068 1.520 10000.000 0.000 1.329
129 387.00 1500.03 257 1070 1.520 10000.000 0.000 1.329
130 390.00 1500.03 272 1136 1.520 10000.000 0.000 1.329
131 393.00 1500.03 253 1191 1.520 10000.000 0.000 1.329
132 396.00 1500.03 229 1122 1.520 10000.000 0.000 1.329
133 399.00 1500.03 219 1102 1.520 10000.000 0.000 1.329
134 402.00 1500.03 231 1204 1.520 10000.000 0.000 1.329
135 405.00 1500.03 221 1098 1.520 10000.000 0.000 1.329
136 408.00 1500.03 188 1110 1.520 10000.000 0.000 1.329
137 411.00 1500.03 185 1061 1.520 10000.000 0.000 1.329
138 414.00 1500.03 214 1041 1.520 10000.000 0.000 1.329
139 417.00 1500.03 209 965 1.520 10000.000 0.000 1.329
140 420.00 1500.03 204 837 1.520 10000.000 0.000 1.329
141 423.00 1500.03 175 850 1.520 10000.000 0.000 1.329
142 426.00 1500.03 186 741 1.520 10000.000 0.000 1.329
143 429.00 1500.03 176 659 1.520 10000.000 0.000 1.329
144 432.00 1500.03 211 652 1.520 10000.000 0.000 1.329
