# BinNR microsec tot-time (s)  O-Beam H-beam AUX Ampl(V) f(Hz) phase(deg) chi(pos)
0 0.00 900.00 145 649 2 0.000 5.373 2000.000 -0.231
1 25.00 900.00 104 598 0 0.000 5.373 2000.000 -0.231
2 50.00 900.00 112 408 3 0.000 5.373 2000.000 -0.231
3 75.00 900.00 115 333 0 0.000 5.373 2000.000 -0.231
4 100.00 900.00 134 315 0 0.000 5.373 2000.000 -0.231
5 125.00 900.00 182 370 0 0.000 5.373 2000.000 -0.231
6 150.00 900.00 291 407 1 0.000 5.373 2000.000 -0.231
7 175.00 900.00 424 509 2 0.000 5.373 2000.000 -0.231
8 200.00 900.00 527 506 2 0.000 5.373 2000.000 -0.231
9 225.00 900.00 480 462 3 0.000 5.373 2000.000 -0.231
10 250.00 900.00 422 352 2 0.000 5.373 2000.000 -0.231
11 275.00 900.00 388 319 1 0.000 5.373 2000.000 -0.231
12 300.00 900.00 306 337 5 0.000 5.373 2000.000 -0.231
13 325.00 900.00 340 476 3 0.000 5.373 2000.000 -0.231
14 350.00 900.00 395 574 6 0.000 5.373 2000.000 -0.231
15 375.00 900.00 461 686 0 0.000 5.373 2000.000 -0.231
16 400.00 900.00 511 681 2 0.000 5.373 2000.000 -0.231
17 425.00 900.00 425 723 1 0.000 5.373 2000.000 -0.231
18 450.00 900.00 303 690 2 0.000 5.373 2000.000 -0.231
19 475.00 900.00 215 694 2 0.000 5.373 2000.000 -0.231
20 500.00 900.00 149 668 2 0.000 5.373 2000.000 -0.231
21 525.00 900.00 112 560 1 0.000 5.373 2000.000 -0.231
22 550.00 900.00 113 415 1 0.000 5.373 2000.000 -0.231
23 575.00 900.00 110 330 1 0.000 5.373 2000.000 -0.231
24 600.00 900.00 130 333 0 0.000 5.373 2000.000 -0.231
25 625.00 900.00 201 369 4 0.000 5.373 2000.000 -0.231
26 650.00 900.00 326 447 2 0.000 5.373 2000.000 -0.231
27 675.00 900.00 429 468 0 0.000 5.373 2000.000 -0.231
28 700.00 900.00 481 509 4 0.000 5.373 2000.000 -0.231
29 725.00 900.00 467 448 2 0.000 5.373 2000.000 -0.231
30 750.00 900.00 386 391 2 0.000 5.373 2000.000 -0.231
31 775.00 900.00 320 366 0 0.000 5.373 2000.000 -0.231
32 800.00 900.00 315 304 4 0.000 5.373 2000.000 -0.231
33 825.00 900.00 317 429 1 0.000 5.373 2000.000 -0.231
34 850.00 900.00 378 587 6 0.000 5.373 2000.000 -0.231
35 875.00 900.00 459 660 4 0.000 5.373 2000.000 -0.231
36 900.00 900.00 475 690 0 0.000 5.373 2000.000 -0.231
37 925.00 900.00 474 720 2 0.000 5.373 2000.000 -0.231
38 950.00 900.00 331 719 2 0.000 5.373 2000.000 -0.231
39 975.00 900.00 215 713 1 0.000 5.373 2000.000 -0.231
