# BinNR microsec tot-time (s)  O-Beam AUX Ampl(V) f(Hz) phase(deg) chi(pos)
0 0.00 1500.00 60 115 0.740 10000.000 0.000 -0.341
1 3.00 1500.00 111 237 0.740 10000.000 0.000 -0.341
2 6.00 1500.00 128 303 0.740 10000.000 0.000 -0.341
3 9.00 1500.00 113 252 0.740 10000.000 0.000 -0.341
4 12.00 1500.00 116 256 0.740 10000.000 0.000 -0.341
5 15.00 1500.00 103 256 0.740 10000.000 0.000 -0.341
6 18.00 1500.00 117 254 0.740 10000.000 0.000 -0.341
7 21.00 1500.00 113 236 0.740 10000.000 0.000 -0.341
8 24.00 1500.00 103 240 0.740 10000.000 0.000 -0.341
9 27.00 1500.00 127 211 0.740 10000.000 0.000 -0.341
10 30.00 1500.00 104 215 0.740 10000.000 0.000 -0.341
11 33.00 1500.00 104 227 0.740 10000.000 0.000 -0.341
12 36.00 1500.00 88 219 0.740 10000.000 0.000 -0.341
13 39.00 1500.00 105 208 0.740 10000.000 0.000 -0.341
14 42.00 1500.00 113 245 0.740 10000.000 0.000 -0.341
15 45.00 1500.00 97 262 0.740 10000.000 0.000 -0.341
16 48.00 1500.00 101 268 0.740 10000.000 0.000 -0.341
17 51.00 1500.00 123 239 0.740 10000.000 0.000 -0.341
18 54.00 1500.00 103 267 0.740 10000.000 0.000 -0.341
19 57.00 1500.00 120 256 0.740 10000.000 0.000 -0.341
20 60.00 1500.00 109 250 0.740 10000.000 0.000 -0.341
21 63.00 1500.00 111 267 0.740 10000.000 0.000 -0.341
22 66.00 1500.00 121 222 0.740 10000.000 0.000 -0.341
23 69.00 1500.00 118 228 0.740 10000.000 0.000 -0.341
24 72.00 1500.00 122 226 0.740 10000.000 0.000 -0.341
25 75.00 1500.00 119 237 0.740 10000.000 0.000 -0.341
26 78.00 1500.00 112 232 0.740 10000.000 0.000 -0.341
27 81.00 1500.00 121 212 0.740 10000.000 0.000 -0.341
28 84.00 1500.00 116 217 0.740 10000.000 0.000 -0.341
29 87.00 1500.00 128 231 0.740 10000.000 0.000 -0.341
30 90.00 1500.00 116 198 0.740 10000.000 0.000 -0.341
31 93.00 1500.00 101 204 0.740 10000.000 0.000 -0.341
32 96.00 1500.00 115 212 0.740 10000.000 0.000 -0.341
33 99.00 1500.00 110 216 0.740 10000.000 0.000 -0.341
34 102.00 1500.00 127 188 0.740 10000.000 0.000 -0.341
35 105.00 1500.00 118 199 0.740 10000.000 0.000 -0.341
36 108.00 1500.00 109 204 0.740 10000.000 0.000 -0.341
37 111.00 1500.00 92 223 0.740 10000.000 0.000 -0.341
38 114.00 1500.00 105 233 0.740 10000.000 0.000 -0.341
39 117.00 1500.00 117 219 0.740 10000.000 0.000 -0.341
40 120.00 1500.00 112 233 0.740 10000.000 0.000 -0.341
41 123.00 1500.00 111 228 0.740 10000.000 0.000 -0.341
42 126.00 1500.00 109 246 0.740 10000.000 0.000 -0.341
43 129.00 1500.00 117 267 0.740 10000.000 0.000 -0.341
44 132.00 1500.00 91 282 0.740 10000.000 0.000 -0.341
45 135.00 1500.00 103 223 0.740 10000.000 0.000 -0.341
46 138.00 1500.00 130 297 0.740 10000.000 0.000 -0.341
47 141.00 1500.00 89 248 0.740 10000.000 0.000 -0.341
48 144.00 1500.00 98 272 0.740 10000.000 0.000 -0.341
49 147.00 1500.00 111 283 0.740 10000.000 0.000 -0.341
50 150.00 1500.00 105 278 0.740 10000.000 0.000 -0.341
51 153.00 1500.00 111 291 0.740 10000.000 0.000 -0.341
52 156.00 1500.00 120 286 0.740 10000.000 0.000 -0.341
53 159.00 1500.00 110 274 0.740 10000.000 0.000 -0.341
54 162.00 1500.00 122 306 0.740 10000.000 0.000 -0.341
55 165.00 1500.00 120 276 0.740 10000.000 0.000 -0.341
56 168.00 1500.00 99 237 0.740 10000.000 0.000 -0.341
57 171.00 1500.00 116 232 0.740 10000.000 0.000 -0.341
58 174.00 1500.00 128 240 0.740 10000.000 0.000 -0.341
59 177.00 1500.00 113 205 0.740 10000.000 0.000 -0.341
60 180.00 1500.00 115 194 0.740 10000.000 0.000 -0.341
61 183.00 1500.00 94 220 0.740 10000.000 0.000 -0.341
62 186.00 1500.00 129 208 0.740 10000.000 0.000 -0.341
63 189.00 1500.00 132 216 0.740 10000.000 0.000 -0.341
64 192.00 1500.00 94 204 0.740 10000.000 0.000 -0.341
65 195.00 1500.00 100 167 0.740 10000.000 0.000 -0.341
66 198.00 1500.00 118 191 0.740 10000.000 0.000 -0.341
67 201.00 1500.00 138 222 0.740 10000.000 0.000 -0.341
68 204.00 1500.00 127 209 0.740 10000.000 0.000 -0.341
69 207.00 1500.00 97 190 0.740 10000.000 0.000 -0.341
70 210.00 1500.00 96 213 0.740 10000.000 0.000 -0.341
71 213.00 1500.00 115 220 0.740 10000.000 0.000 -0.341
72 216.00 1500.00 106 204 0.740 10000.000 0.000 -0.341
73 219.00 1500.00 112 193 0.740 10000.000 0.000 -0.341
74 222.00 1500.00 98 240 0.740 10000.000 0.000 -0.341
75 225.00 1500.00 97 225 0.740 10000.000 0.000 -0.341
76 228.00 1500.00 123 262 0.740 10000.000 0.000 -0.341
77 231.00 1500.00 112 219 0.740 10000.000 0.000 -0.341
78 234.00 1500.00 116 233 0.740 10000.000 0.000 -0.341
79 237.00 1500.00 91 288 0.740 10000.000 0.000 -0.341
80 240.00 1500.00 127 274 0.740 10000.000 0.000 -0.341
81 243.00 1500.00 98 266 0.740 10000.000 0.000 -0.341
82 246.00 1500.00 122 273 0.740 10000.000 0.000 -0.341
83 249.00 1500.00 101 301 0.740 10000.000 0.000 -0.341
84 252.00 1500.00 111 286 0.740 10000.000 0.000 -0.341
85 255.00 1500.00 92 247 0.740 10000.000 0.000 -0.341
86 258.00 1500.00 121 260 0.740 10000.000 0.000 -0.341
87 261.00 1500.00 117 270 0.740 10000.000 0.000 -0.341
88 264.00 1500.00 122 238 0.740 10000.000 0.000 -0.341
89 267.00 1500.00 134 246 0.740 10000.000 0.000 -0.341
90 270.00 1500.00 111 234 0.740 10000.000 0.000 -0.341
91 273.00 1500.00 108 221 0.740 10000.000 0.000 -0.341
92 276.00 1500.00 105 226 0.740 10000.000 0.000 -0.341
93 279.00 1500.00 123 227 0.740 10000.000 0.000 -0.341
94 282.00 1500.00 119 239 0.740 10000.000 0.000 -0.341
95 285.00 1500.00 100 198 0.740 10000.000 0.000 -0.341
96 288.00 1500.00 105 193 0.740 10000.000 0.000 -0.341
97 291.00 1500.00 102 187 0.740 10000.000 0.000 -0.341
98 294.00 1500.00 123 168 0.740 10000.000 0.000 -0.341
99 297.00 1500.00 113 184 0.740 10000.000 0.000 -0.341
100 300.00 1500.00 120 218 0.740 10000.000 0.000 -0.341
101 303.00 1500.00 109 200 0.740 10000.000 0.000 -0.341
102 306.00 1500.00 99 210 0.740 10000.000 0.000 -0.341
103 309.00 1500.00 112 181 0.740 10000.000 0.000 -0.341
104 312.00 1500.00 116 219 0.740 10000.000 0.000 -0.341
105 315.00 1500.00 107 213 0.740 10000.000 0.000 -0.341
106 318.00 1500.00 101 240 0.740 10000.000 0.000 -0.341
107 321.00 1500.00 106 238 0.740 10000.000 0.000 -0.341
108 324.00 1500.00 122 214 0.740 10000.000 0.000 -0.341
109 327.00 1500.00 117 218 0.740 10000.000 0.000 -0.341
110 330.00 1500.00 111 257 0.740 10000.000 0.000 -0.341
111 333.00 1500.00 96 270 0.740 10000.000 0.000 -0.341
112 336.00 1500.00 127 249 0.740 10000.000 0.000 -0.341
113 339.00 1500.00 124 238 0.740 10000.000 0.000 -0.341
114 342.00 1500.00 113 269 0.740 10000.000 0.000 -0.341
115 345.00 1500.00 122 278 0.740 10000.000 0.000 -0.341
116 348.00 1500.00 99 290 0.740 10000.000 0.000 -0.341
117 351.00 1500.00 119 296 0.740 10000.000 0.000 -0.341
118 354.00 1500.00 118 287 0.740 10000.000 0.000 -0.341
119 357.00 1500.00 90 268 0.740 10000.000 0.000 -0.341
120 360.00 1500.00 118 248 0.740 10000.000 0.000 -0.341
121 363.00 1500.00 117 243 0.740 10000.000 0.000 -0.341
122 366.00 1500.00 104 246 0.740 10000.000 0.000 -0.341
123 369.00 1500.00 114 244 0.740 10000.000 0.000 -0.341
124 372.00 1500.00 103 216 0.740 10000.000 0.000 -0.341
125 375.00 1500.00 106 237 0.740 10000.000 0.000 -0.341
126 378.00 1500.00 107 225 0.740 10000.000 0.000 -0.341
127 381.00 1500.00 106 191 0.740 10000.000 0.000 -0.341
128 384.00 1500.00 118 204 0.740 10000.000 0.000 -0.341
129 387.00 1500.00 118 201 0.740 10000.000 0.000 -0.341
130 390.00 1500.00 109 245 0.740 10000.000 0.000 -0.341
131 393.00 1500.00 131 208 0.740 10000.000 0.000 -0.341
132 396.00 1500.00 124 218 0.740 10000.000 0.000 -0.341
133 399.00 1500.00 113 221 0.740 10000.000 0.000 -0.341
134 402.00 1500.00 120 237 0.740 10000.000 0.000 -0.341
135 405.00 1500.00 115 209 0.740 10000.000 0.000 -0.341
136 408.00 1500.00 123 204 0.740 10000.000 0.000 -0.341
137 411.00 1500.00 108 229 0.740 10000.000 0.000 -0.341
138 414.00 1500.00 136 222 0.740 10000.000 0.000 -0.341
139 417.00 1500.00 110 210 0.740 10000.000 0.000 -0.341
140 420.00 1500.00 121 205 0.740 10000.000 0.000 -0.341
141 423.00 1500.00 98 217 0.740 10000.000 0.000 -0.341
142 426.00 1500.00 109 240 0.740 10000.000 0.000 -0.341
143 429.00 1500.00 125 274 0.740 10000.000 0.000 -0.341
144 432.00 1500.00 123 264 0.740 10000.000 0.000 -0.341
