# BinNR microsec tot-time (s)  O-Beam AUX Ampl(V) f(Hz) phase(deg) chi(pos)
0 0.00 1500.00 109 250 0.740 10000.000 0.000 0.824
1 3.00 1500.00 194 461 0.740 10000.000 0.000 0.824
2 6.00 1500.00 190 479 0.740 10000.000 0.000 0.824
3 9.00 1500.00 199 500 0.740 10000.000 0.000 0.824
4 12.00 1500.00 230 488 0.740 10000.000 0.000 0.824
5 15.00 1500.00 204 520 0.740 10000.000 0.000 0.824
6 18.00 1500.00 223 498 0.740 10000.000 0.000 0.824
7 21.00 1500.00 186 488 0.740 10000.000 0.000 0.824
8 24.00 1500.00 208 501 0.740 10000.000 0.000 0.824
9 27.00 1500.00 213 540 0.740 10000.000 0.000 0.824
10 30.00 1500.00 230 553 0.740 10000.000 0.000 0.824
11 33.00 1500.00 203 529 0.740 10000.000 0.000 0.824
12 36.00 1500.00 212 533 0.740 10000.000 0.000 0.824
13 39.00 1500.00 242 543 0.740 10000.000 0.000 0.824
14 42.00 1500.00 247 546 0.740 10000.000 0.000 0.824
15 45.00 1500.00 201 498 0.740 10000.000 0.000 0.824
16 48.00 1500.00 207 517 0.740 10000.000 0.000 0.824
17 51.00 1500.00 178 498 0.740 10000.000 0.000 0.824
18 54.00 1500.00 199 527 0.740 10000.000 0.000 0.824
19 57.00 1500.00 185 479 0.740 10000.000 0.000 0.824
20 60.00 1500.00 195 492 0.740 10000.000 0.000 0.824
21 63.00 1500.00 239 512 0.740 10000.000 0.000 0.824
22 66.00 1500.00 214 512 0.740 10000.000 0.000 0.824
23 69.00 1500.00 205 493 0.740 10000.000 0.000 0.824
24 72.00 1500.00 193 486 0.740 10000.000 0.000 0.824
25 75.00 1500.00 178 481 0.740 10000.000 0.000 0.824
26 78.00 1500.00 180 544 0.740 10000.000 0.000 0.824
27 81.00 1500.00 189 527 0.740 10000.000 0.000 0.824
28 84.00 1500.00 203 579 0.740 10000.000 0.000 0.824
29 87.00 1500.00 199 558 0.740 10000.000 0.000 0.824
30 90.00 1500.00 200 606 0.740 10000.000 0.000 0.824
31 93.00 1500.00 210 546 0.740 10000.000 0.000 0.824
32 96.00 1500.00 189 601 0.740 10000.000 0.000 0.824
33 99.00 1500.00 178 549 0.740 10000.000 0.000 0.824
34 102.00 1500.00 198 566 0.740 10000.000 0.000 0.824
35 105.00 1500.00 198 545 0.740 10000.000 0.000 0.824
36 108.00 1500.00 212 583 0.740 10000.000 0.000 0.824
37 111.00 1500.00 201 593 0.740 10000.000 0.000 0.824
38 114.00 1500.00 217 557 0.740 10000.000 0.000 0.824
39 117.00 1500.00 207 541 0.740 10000.000 0.000 0.824
40 120.00 1500.00 189 534 0.740 10000.000 0.000 0.824
41 123.00 1500.00 188 565 0.740 10000.000 0.000 0.824
42 126.00 1500.00 186 545 0.740 10000.000 0.000 0.824
43 129.00 1500.00 214 521 0.740 10000.000 0.000 0.824
44 132.00 1500.00 216 514 0.740 10000.000 0.000 0.824
45 135.00 1500.00 200 485 0.740 10000.000 0.000 0.824
46 138.00 1500.00 228 475 0.740 10000.000 0.000 0.824
47 141.00 1500.00 201 466 0.740 10000.000 0.000 0.824
48 144.00 1500.00 212 444 0.740 10000.000 0.000 0.824
49 147.00 1500.00 182 429 0.740 10000.000 0.000 0.824
50 150.00 1500.00 198 479 0.740 10000.000 0.000 0.824
51 153.00 1500.00 226 483 0.740 10000.000 0.000 0.824
52 156.00 1500.00 211 461 0.740 10000.000 0.000 0.824
53 159.00 1500.00 207 480 0.740 10000.000 0.000 0.824
54 162.00 1500.00 189 467 0.740 10000.000 0.000 0.824
55 165.00 1500.00 217 462 0.740 10000.000 0.000 0.824
56 168.00 1500.00 160 533 0.740 10000.000 0.000 0.824
57 171.00 1500.00 197 560 0.740 10000.000 0.000 0.824
58 174.00 1500.00 179 508 0.740 10000.000 0.000 0.824
59 177.00 1500.00 177 534 0.740 10000.000 0.000 0.824
60 180.00 1500.00 190 573 0.740 10000.000 0.000 0.824
61 183.00 1500.00 163 557 0.740 10000.000 0.000 0.824
62 186.00 1500.00 180 564 0.740 10000.000 0.000 0.824
63 189.00 1500.00 197 579 0.740 10000.000 0.000 0.824
64 192.00 1500.00 195 569 0.740 10000.000 0.000 0.824
65 195.00 1500.00 176 532 0.740 10000.000 0.000 0.824
66 198.00 1500.00 202 530 0.740 10000.000 0.000 0.824
67 201.00 1500.00 200 577 0.740 10000.000 0.000 0.824
68 204.00 1500.00 205 573 0.740 10000.000 0.000 0.824
69 207.00 1500.00 192 571 0.740 10000.000 0.000 0.824
70 210.00 1500.00 207 586 0.740 10000.000 0.000 0.824
71 213.00 1500.00 193 558 0.740 10000.000 0.000 0.824
72 216.00 1500.00 186 577 0.740 10000.000 0.000 0.824
73 219.00 1500.00 194 565 0.740 10000.000 0.000 0.824
74 222.00 1500.00 219 571 0.740 10000.000 0.000 0.824
75 225.00 1500.00 217 544 0.740 10000.000 0.000 0.824
76 228.00 1500.00 187 502 0.740 10000.000 0.000 0.824
77 231.00 1500.00 232 501 0.740 10000.000 0.000 0.824
78 234.00 1500.00 230 463 0.740 10000.000 0.000 0.824
79 237.00 1500.00 194 482 0.740 10000.000 0.000 0.824
80 240.00 1500.00 197 474 0.740 10000.000 0.000 0.824
81 243.00 1500.00 210 467 0.740 10000.000 0.000 0.824
82 246.00 1500.00 212 435 0.740 10000.000 0.000 0.824
83 249.00 1500.00 217 470 0.740 10000.000 0.000 0.824
84 252.00 1500.00 214 482 0.740 10000.000 0.000 0.824
85 255.00 1500.00 219 467 0.740 10000.000 0.000 0.824
86 258.00 1500.00 214 517 0.740 10000.000 0.000 0.824
87 261.00 1500.00 166 477 0.740 10000.000 0.000 0.824
88 264.00 1500.00 188 524 0.740 10000.000 0.000 0.824
89 267.00 1500.00 210 523 0.740 10000.000 0.000 0.824
90 270.00 1500.00 175 510 0.740 10000.000 0.000 0.824
91 273.00 1500.00 200 479 0.740 10000.000 0.000 0.824
92 276.00 1500.00 211 490 0.740 10000.000 0.000 0.824
93 279.00 1500.00 186 552 0.740 10000.000 0.000 0.824
94 282.00 1500.00 190 560 0.740 10000.000 0.000 0.824
95 285.00 1500.00 194 626 0.740 10000.000 0.000 0.824
96 288.00 1500.00 222 564 0.740 10000.000 0.000 0.824
97 291.00 1500.00 204 610 0.740 10000.000 0.000 0.824
98 294.00 1500.00 200 598 0.740 10000.000 0.000 0.824
99 297.00 1500.00 162 528 0.740 10000.000 0.000 0.824
100 300.00 1500.00 198 648 0.740 10000.000 0.000 0.824
101 303.00 1500.00 212 547 0.740 10000.000 0.000 0.824
102 306.00 1500.00 198 558 0.740 10000.000 0.000 0.824
103 309.00 1500.00 198 580 0.740 10000.000 0.000 0.824
104 312.00 1500.00 173 563 0.740 10000.000 0.000 0.824
105 315.00 1500.00 201 546 0.740 10000.000 0.000 0.824
106 318.00 1500.00 170 547 0.740 10000.000 0.000 0.824
107 321.00 1500.00 197 539 0.740 10000.000 0.000 0.824
108 324.00 1500.00 209 479 0.740 10000.000 0.000 0.824
109 327.00 1500.00 191 504 0.740 10000.000 0.000 0.824
110 330.00 1500.00 189 548 0.740 10000.000 0.000 0.824
111 333.00 1500.00 176 472 0.740 10000.000 0.000 0.824
112 336.00 1500.00 196 491 0.740 10000.000 0.000 0.824
113 339.00 1500.00 217 454 0.740 10000.000 0.000 0.824
114 342.00 1500.00 222 476 0.740 10000.000 0.000 0.824
115 345.00 1500.00 193 427 0.740 10000.000 0.000 0.824
116 348.00 1500.00 196 464 0.740 10000.000 0.000 0.824
117 351.00 1500.00 185 506 0.740 10000.000 0.000 0.824
118 354.00 1500.00 210 461 0.740 10000.000 0.000 0.824
119 357.00 1500.00 205 454 0.740 10000.000 0.000 0.824
120 360.00 1500.00 215 469 0.740 10000.000 0.000 0.824
121 363.00 1500.00 201 490 0.740 10000.000 0.000 0.824
122 366.00 1500.00 216 493 0.740 10000.000 0.000 0.824
123 369.00 1500.00 196 532 0.740 10000.000 0.000 0.824
124 372.00 1500.00 223 520 0.740 10000.000 0.000 0.824
125 375.00 1500.00 212 547 0.740 10000.000 0.000 0.824
126 378.00 1500.00 248 579 0.740 10000.000 0.000 0.824
127 381.00 1500.00 200 586 0.740 10000.000 0.000 0.824
128 384.00 1500.00 221 528 0.740 10000.000 0.000 0.824
129 387.00 1500.00 207 586 0.740 10000.000 0.000 0.824
130 390.00 1500.00 237 588 0.740 10000.000 0.000 0.824
131 393.00 1500.00 197 554 0.740 10000.000 0.000 0.824
132 396.00 1500.00 206 532 0.740 10000.000 0.000 0.824
133 399.00 1500.00 155 588 0.740 10000.000 0.000 0.824
134 402.00 1500.00 181 574 0.740 10000.000 0.000 0.824
135 405.00 1500.00 177 591 0.740 10000.000 0.000 0.824
136 408.00 1500.00 190 615 0.740 10000.000 0.000 0.824
137 411.00 1500.00 180 578 0.740 10000.000 0.000 0.824
138 414.00 1500.00 179 533 0.740 10000.000 0.000 0.824
139 417.00 1500.00 177 568 0.740 10000.000 0.000 0.824
140 420.00 1500.00 176 519 0.740 10000.000 0.000 0.824
141 423.00 1500.00 191 569 0.740 10000.000 0.000 0.824
142 426.00 1500.00 195 559 0.740 10000.000 0.000 0.824
143 429.00 1500.00 160 539 0.740 10000.000 0.000 0.824
144 432.00 1500.00 210 484 0.740 10000.000 0.000 0.824
