# BinNR microsec tot-time (s)  O-Beam AUX Ampl(V) f(Hz) phase(deg) chi(pos)
0 0.00 1500.00 99 279 0.740 10000.000 0.000 0.165
1 3.00 1500.00 191 563 0.740 10000.000 0.000 0.165
2 6.00 1500.00 188 555 0.740 10000.000 0.000 0.165
3 9.00 1500.00 201 549 0.740 10000.000 0.000 0.165
4 12.00 1500.00 192 562 0.740 10000.000 0.000 0.165
5 15.00 1500.00 181 539 0.740 10000.000 0.000 0.165
6 18.00 1500.00 172 574 0.740 10000.000 0.000 0.165
7 21.00 1500.00 194 540 0.740 10000.000 0.000 0.165
8 24.00 1500.00 179 560 0.740 10000.000 0.000 0.165
9 27.00 1500.00 153 519 0.740 10000.000 0.000 0.165
10 30.00 1500.00 186 560 0.740 10000.000 0.000 0.165
11 33.00 1500.00 168 523 0.740 10000.000 0.000 0.165
12 36.00 1500.00 178 568 0.740 10000.000 0.000 0.165
13 39.00 1500.00 156 516 0.740 10000.000 0.000 0.165
14 42.00 1500.00 184 545 0.740 10000.000 0.000 0.165
15 45.00 1500.00 157 501 0.740 10000.000 0.000 0.165
16 48.00 1500.00 166 590 0.740 10000.000 0.000 0.165
17 51.00 1500.00 169 569 0.740 10000.000 0.000 0.165
18 54.00 1500.00 160 574 0.740 10000.000 0.000 0.165
19 57.00 1500.00 183 560 0.740 10000.000 0.000 0.165
20 60.00 1500.00 188 571 0.740 10000.000 0.000 0.165
21 63.00 1500.00 167 535 0.740 10000.000 0.000 0.165
22 66.00 1500.00 192 599 0.740 10000.000 0.000 0.165
23 69.00 1500.00 185 540 0.740 10000.000 0.000 0.165
24 72.00 1500.00 226 501 0.740 10000.000 0.000 0.165
25 75.00 1500.00 188 530 0.740 10000.000 0.000 0.165
26 78.00 1500.00 192 487 0.740 10000.000 0.000 0.165
27 81.00 1500.00 187 439 0.740 10000.000 0.000 0.165
28 84.00 1500.00 192 450 0.740 10000.000 0.000 0.165
29 87.00 1500.00 194 441 0.740 10000.000 0.000 0.165
30 90.00 1500.00 221 506 0.740 10000.000 0.000 0.165
31 93.00 1500.00 169 436 0.740 10000.000 0.000 0.165
32 96.00 1500.00 190 425 0.740 10000.000 0.000 0.165
33 99.00 1500.00 209 426 0.740 10000.000 0.000 0.165
34 102.00 1500.00 211 465 0.740 10000.000 0.000 0.165
35 105.00 1500.00 174 430 0.740 10000.000 0.000 0.165
36 108.00 1500.00 173 503 0.740 10000.000 0.000 0.165
37 111.00 1500.00 185 474 0.740 10000.000 0.000 0.165
38 114.00 1500.00 207 464 0.740 10000.000 0.000 0.165
39 117.00 1500.00 170 485 0.740 10000.000 0.000 0.165
40 120.00 1500.00 187 529 0.740 10000.000 0.000 0.165
41 123.00 1500.00 156 499 0.740 10000.000 0.000 0.165
42 126.00 1500.00 165 546 0.740 10000.000 0.000 0.165
43 129.00 1500.00 148 544 0.740 10000.000 0.000 0.165
44 132.00 1500.00 168 563 0.740 10000.000 0.000 0.165
45 135.00 1500.00 183 542 0.740 10000.000 0.000 0.165
46 138.00 1500.00 157 543 0.740 10000.000 0.000 0.165
47 141.00 1500.00 165 590 0.740 10000.000 0.000 0.165
48 144.00 1500.00 172 594 0.740 10000.000 0.000 0.165
49 147.00 1500.00 201 566 0.740 10000.000 0.000 0.165
50 150.00 1500.00 174 554 0.740 10000.000 0.000 0.165
51 153.00 1500.00 177 566 0.740 10000.000 0.000 0.165
52 156.00 1500.00 172 609 0.740 10000.000 0.000 0.165
53 159.00 1500.00 167 556 0.740 10000.000 0.000 0.165
54 162.00 1500.00 209 564 0.740 10000.000 0.000 0.165
55 165.00 1500.00 189 546 0.740 10000.000 0.000 0.165
56 168.00 1500.00 184 515 0.740 10000.000 0.000 0.165
57 171.00 1500.00 188 541 0.740 10000.000 0.000 0.165
58 174.00 1500.00 203 494 0.740 10000.000 0.000 0.165
59 177.00 1500.00 194 514 0.740 10000.000 0.000 0.165
60 180.00 1500.00 196 507 0.740 10000.000 0.000 0.165
61 183.00 1500.00 195 502 0.740 10000.000 0.000 0.165
62 186.00 1500.00 223 473 0.740 10000.000 0.000 0.165
63 189.00 1500.00 176 441 0.740 10000.000 0.000 0.165
64 192.00 1500.00 189 442 0.740 10000.000 0.000 0.165
65 195.00 1500.00 179 461 0.740 10000.000 0.000 0.165
66 198.00 1500.00 202 469 0.740 10000.000 0.000 0.165
67 201.00 1500.00 187 494 0.740 10000.000 0.000 0.165
68 204.00 1500.00 217 463 0.740 10000.000 0.000 0.165
69 207.00 1500.00 198 458 0.740 10000.000 0.000 0.165
70 210.00 1500.00 180 460 0.740 10000.000 0.000 0.165
71 213.00 1500.00 164 453 0.740 10000.000 0.000 0.165
72 216.00 1500.00 184 520 0.740 10000.000 0.000 0.165
73 219.00 1500.00 174 445 0.740 10000.000 0.000 0.165
74 222.00 1500.00 186 538 0.740 10000.000 0.000 0.165
75 225.00 1500.00 166 525 0.740 10000.000 0.000 0.165
76 228.00 1500.00 185 581 0.740 10000.000 0.000 0.165
77 231.00 1500.00 160 540 0.740 10000.000 0.000 0.165
78 234.00 1500.00 194 548 0.740 10000.000 0.000 0.165
79 237.00 1500.00 195 581 0.740 10000.000 0.000 0.165
80 240.00 1500.00 169 539 0.740 10000.000 0.000 0.165
81 243.00 1500.00 162 573 0.740 10000.000 0.000 0.165
82 246.00 1500.00 175 567 0.740 10000.000 0.000 0.165
83 249.00 1500.00 167 568 0.740 10000.000 0.000 0.165
84 252.00 1500.00 164 560 0.740 10000.000 0.000 0.165
85 255.00 1500.00 175 596 0.740 10000.000 0.000 0.165
86 258.00 1500.00 180 567 0.740 10000.000 0.000 0.165
87 261.00 1500.00 162 547 0.740 10000.000 0.000 0.165
88 264.00 1500.00 196 539 0.740 10000.000 0.000 0.165
89 267.00 1500.00 181 545 0.740 10000.000 0.000 0.165
90 270.00 1500.00 180 536 0.740 10000.000 0.000 0.165
91 273.00 1500.00 203 528 0.740 10000.000 0.000 0.165
92 276.00 1500.00 223 512 0.740 10000.000 0.000 0.165
93 279.00 1500.00 212 482 0.740 10000.000 0.000 0.165
94 282.00 1500.00 169 487 0.740 10000.000 0.000 0.165
95 285.00 1500.00 187 497 0.740 10000.000 0.000 0.165
96 288.00 1500.00 184 432 0.740 10000.000 0.000 0.165
97 291.00 1500.00 199 456 0.740 10000.000 0.000 0.165
98 294.00 1500.00 187 488 0.740 10000.000 0.000 0.165
99 297.00 1500.00 164 490 0.740 10000.000 0.000 0.165
100 300.00 1500.00 182 449 0.740 10000.000 0.000 0.165
101 303.00 1500.00 192 437 0.740 10000.000 0.000 0.165
102 306.00 1500.00 186 476 0.740 10000.000 0.000 0.165
103 309.00 1500.00 195 436 0.740 10000.000 0.000 0.165
104 312.00 1500.00 178 486 0.740 10000.000 0.000 0.165
105 315.00 1500.00 168 522 0.740 10000.000 0.000 0.165
106 318.00 1500.00 185 515 0.740 10000.000 0.000 0.165
107 321.00 1500.00 205 515 0.740 10000.000 0.000 0.165
108 324.00 1500.00 202 519 0.740 10000.000 0.000 0.165
109 327.00 1500.00 211 494 0.740 10000.000 0.000 0.165
110 330.00 1500.00 201 541 0.740 10000.000 0.000 0.165
111 333.00 1500.00 190 562 0.740 10000.000 0.000 0.165
112 336.00 1500.00 154 587 0.740 10000.000 0.000 0.165
113 339.00 1500.00 207 570 0.740 10000.000 0.000 0.165
114 342.00 1500.00 182 565 0.740 10000.000 0.000 0.165
115 345.00 1500.00 194 585 0.740 10000.000 0.000 0.165
116 348.00 1500.00 184 640 0.740 10000.000 0.000 0.165
117 351.00 1500.00 198 577 0.740 10000.000 0.000 0.165
118 354.00 1500.00 160 577 0.740 10000.000 0.000 0.165
119 357.00 1500.00 198 602 0.740 10000.000 0.000 0.165
120 360.00 1500.00 188 569 0.740 10000.000 0.000 0.165
121 363.00 1500.00 185 599 0.740 10000.000 0.000 0.165
122 366.00 1500.00 172 560 0.740 10000.000 0.000 0.165
123 369.00 1500.00 145 497 0.740 10000.000 0.000 0.165
124 372.00 1500.00 165 519 0.740 10000.000 0.000 0.165
125 375.00 1500.00 146 493 0.740 10000.000 0.000 0.165
126 378.00 1500.00 175 493 0.740 10000.000 0.000 0.165
127 381.00 1500.00 189 484 0.740 10000.000 0.000 0.165
128 384.00 1500.00 170 443 0.740 10000.000 0.000 0.165
129 387.00 1500.00 171 477 0.740 10000.000 0.000 0.165
130 390.00 1500.00 172 484 0.740 10000.000 0.000 0.165
131 393.00 1500.00 178 461 0.740 10000.000 0.000 0.165
132 396.00 1500.00 170 436 0.740 10000.000 0.000 0.165
133 399.00 1500.00 186 470 0.740 10000.000 0.000 0.165
134 402.00 1500.00 192 436 0.740 10000.000 0.000 0.165
135 405.00 1500.00 173 453 0.740 10000.000 0.000 0.165
136 408.00 1500.00 193 495 0.740 10000.000 0.000 0.165
137 411.00 1500.00 181 488 0.740 10000.000 0.000 0.165
138 414.00 1500.00 206 520 0.740 10000.000 0.000 0.165
139 417.00 1500.00 187 483 0.740 10000.000 0.000 0.165
140 420.00 1500.00 221 517 0.740 10000.000 0.000 0.165
141 423.00 1500.00 190 485 0.740 10000.000 0.000 0.165
142 426.00 1500.00 208 554 0.740 10000.000 0.000 0.165
143 429.00 1500.00 199 550 0.740 10000.000 0.000 0.165
144 432.00 1500.00 202 517 0.740 10000.000 0.000 0.165
