# BinNR microsec tot-time (s)  O-Beam AUX Ampl(V) f(Hz) phase(deg) chi(pos)
0 0.00 1500.03 112 301 0.740 10000.000 0.000 -1.340
1 3.00 1500.03 236 562 0.740 10000.000 0.000 -1.340
2 6.00 1500.03 201 627 0.740 10000.000 0.000 -1.340
3 9.00 1500.03 240 563 0.740 10000.000 0.000 -1.340
4 12.00 1500.03 212 632 0.740 10000.000 0.000 -1.340
5 15.00 1500.03 208 590 0.740 10000.000 0.000 -1.340
6 18.00 1500.03 226 619 0.740 10000.000 0.000 -1.340
7 21.00 1500.03 216 585 0.740 10000.000 0.000 -1.340
8 24.00 1500.03 211 619 0.740 10000.000 0.000 -1.340
9 27.00 1500.03 244 598 0.740 10000.000 0.000 -1.340
10 30.00 1500.03 215 632 0.740 10000.000 0.000 -1.340
11 33.00 1500.03 197 619 0.740 10000.000 0.000 -1.340
12 36.00 1500.03 237 620 0.740 10000.000 0.000 -1.340
13 39.00 1500.03 219 594 0.740 10000.000 0.000 -1.340
14 42.00 1500.03 228 639 0.740 10000.000 0.000 -1.340
15 45.00 1500.03 203 583 0.740 10000.000 0.000 -1.340
16 48.00 1500.03 226 610 0.740 10000.000 0.000 -1.340
17 51.00 1500.03 205 584 0.740 10000.000 0.000 -1.340
18 54.00 1500.03 201 591 0.740 10000.000 0.000 -1.340
19 57.00 1500.03 214 568 0.740 10000.000 0.000 -1.340
20 60.00 1500.03 193 577 0.740 10000.000 0.000 -1.340
21 63.00 1500.03 215 603 0.740 10000.000 0.000 -1.340
22 66.00 1500.03 216 651 0.740 10000.000 0.000 -1.340
23 69.00 1500.03 190 607 0.740 10000.000 0.000 -1.340
24 72.00 1500.03 196 583 0.740 10000.000 0.000 -1.340
25 75.00 1500.03 189 565 0.740 10000.000 0.000 -1.340
26 78.00 1500.03 219 625 0.740 10000.000 0.000 -1.340
27 81.00 1500.03 198 626 0.740 10000.000 0.000 -1.340
28 84.00 1500.03 220 597 0.740 10000.000 0.000 -1.340
29 87.00 1500.03 223 641 0.740 10000.000 0.000 -1.340
30 90.00 1500.03 205 640 0.740 10000.000 0.000 -1.340
31 93.00 1500.03 207 599 0.740 10000.000 0.000 -1.340
32 96.00 1500.03 191 620 0.740 10000.000 0.000 -1.340
33 99.00 1500.03 233 667 0.740 10000.000 0.000 -1.340
34 102.00 1500.03 204 633 0.740 10000.000 0.000 -1.340
35 105.00 1500.03 215 647 0.740 10000.000 0.000 -1.340
36 108.00 1500.03 247 648 0.740 10000.000 0.000 -1.340
37 111.00 1500.03 219 623 0.740 10000.000 0.000 -1.340
38 114.00 1500.03 197 679 0.740 10000.000 0.000 -1.340
39 117.00 1500.03 220 591 0.740 10000.000 0.000 -1.340
40 120.00 1500.03 232 635 0.740 10000.000 0.000 -1.340
41 123.00 1500.03 227 631 0.740 10000.000 0.000 -1.340
42 126.00 1500.03 228 657 0.740 10000.000 0.000 -1.340
43 129.00 1500.03 211 602 0.740 10000.000 0.000 -1.340
44 132.00 1500.03 246 582 0.740 10000.000 0.000 -1.340
45 135.00 1500.03 231 534 0.740 10000.000 0.000 -1.340
46 138.00 1500.03 225 605 0.740 10000.000 0.000 -1.340
47 141.00 1500.03 206 571 0.740 10000.000 0.000 -1.340
48 144.00 1500.03 239 611 0.740 10000.000 0.000 -1.340
49 147.00 1500.03 233 555 0.740 10000.000 0.000 -1.340
50 150.00 1500.03 236 563 0.740 10000.000 0.000 -1.340
51 153.00 1500.03 213 557 0.740 10000.000 0.000 -1.340
52 156.00 1500.03 226 578 0.740 10000.000 0.000 -1.340
53 159.00 1500.03 183 576 0.740 10000.000 0.000 -1.340
54 162.00 1500.03 215 598 0.740 10000.000 0.000 -1.340
55 165.00 1500.03 218 601 0.740 10000.000 0.000 -1.340
56 168.00 1500.03 196 623 0.740 10000.000 0.000 -1.340
57 171.00 1500.03 235 615 0.740 10000.000 0.000 -1.340
58 174.00 1500.03 220 666 0.740 10000.000 0.000 -1.340
59 177.00 1500.03 206 594 0.740 10000.000 0.000 -1.340
60 180.00 1500.03 241 660 0.740 10000.000 0.000 -1.340
61 183.00 1500.03 206 623 0.740 10000.000 0.000 -1.340
62 186.00 1500.03 207 618 0.740 10000.000 0.000 -1.340
63 189.00 1500.03 215 633 0.740 10000.000 0.000 -1.340
64 192.00 1500.03 234 632 0.740 10000.000 0.000 -1.340
65 195.00 1500.03 226 647 0.740 10000.000 0.000 -1.340
66 198.00 1500.03 218 632 0.740 10000.000 0.000 -1.340
67 201.00 1500.03 208 677 0.740 10000.000 0.000 -1.340
68 204.00 1500.03 224 669 0.740 10000.000 0.000 -1.340
69 207.00 1500.03 225 673 0.740 10000.000 0.000 -1.340
70 210.00 1500.03 223 657 0.740 10000.000 0.000 -1.340
71 213.00 1500.03 212 669 0.740 10000.000 0.000 -1.340
72 216.00 1500.03 219 672 0.740 10000.000 0.000 -1.340
73 219.00 1500.03 212 597 0.740 10000.000 0.000 -1.340
74 222.00 1500.03 232 614 0.740 10000.000 0.000 -1.340
75 225.00 1500.03 225 617 0.740 10000.000 0.000 -1.340
76 228.00 1500.03 201 585 0.740 10000.000 0.000 -1.340
77 231.00 1500.03 228 575 0.740 10000.000 0.000 -1.340
78 234.00 1500.03 220 596 0.740 10000.000 0.000 -1.340
79 237.00 1500.03 224 565 0.740 10000.000 0.000 -1.340
80 240.00 1500.03 224 594 0.740 10000.000 0.000 -1.340
81 243.00 1500.03 221 554 0.740 10000.000 0.000 -1.340
82 246.00 1500.03 231 549 0.740 10000.000 0.000 -1.340
83 249.00 1500.03 202 562 0.740 10000.000 0.000 -1.340
84 252.00 1500.03 219 567 0.740 10000.000 0.000 -1.340
85 255.00 1500.03 213 555 0.740 10000.000 0.000 -1.340
86 258.00 1500.03 203 550 0.740 10000.000 0.000 -1.340
87 261.00 1500.03 215 582 0.740 10000.000 0.000 -1.340
88 264.00 1500.03 194 567 0.740 10000.000 0.000 -1.340
89 267.00 1500.03 221 593 0.740 10000.000 0.000 -1.340
90 270.00 1500.03 186 616 0.740 10000.000 0.000 -1.340
91 273.00 1500.03 216 687 0.740 10000.000 0.000 -1.340
92 276.00 1500.03 225 628 0.740 10000.000 0.000 -1.340
93 279.00 1500.03 221 617 0.740 10000.000 0.000 -1.340
94 282.00 1500.03 207 661 0.740 10000.000 0.000 -1.340
95 285.00 1500.03 196 605 0.740 10000.000 0.000 -1.340
96 288.00 1500.03 212 662 0.740 10000.000 0.000 -1.340
97 291.00 1500.03 188 683 0.740 10000.000 0.000 -1.340
98 294.00 1500.03 218 646 0.740 10000.000 0.000 -1.340
99 297.00 1500.03 202 622 0.740 10000.000 0.000 -1.340
100 300.00 1500.03 208 659 0.740 10000.000 0.000 -1.340
101 303.00 1500.03 223 608 0.740 10000.000 0.000 -1.340
102 306.00 1500.03 212 624 0.740 10000.000 0.000 -1.340
103 309.00 1500.03 215 638 0.740 10000.000 0.000 -1.340
104 312.00 1500.03 216 644 0.740 10000.000 0.000 -1.340
105 315.00 1500.03 208 631 0.740 10000.000 0.000 -1.340
106 318.00 1500.03 194 667 0.740 10000.000 0.000 -1.340
107 321.00 1500.03 184 569 0.740 10000.000 0.000 -1.340
108 324.00 1500.03 224 597 0.740 10000.000 0.000 -1.340
109 327.00 1500.03 201 606 0.740 10000.000 0.000 -1.340
110 330.00 1500.03 210 616 0.740 10000.000 0.000 -1.340
111 333.00 1500.03 196 581 0.740 10000.000 0.000 -1.340
112 336.00 1500.03 213 566 0.740 10000.000 0.000 -1.340
113 339.00 1500.03 218 592 0.740 10000.000 0.000 -1.340
114 342.00 1500.03 217 605 0.740 10000.000 0.000 -1.340
115 345.00 1500.03 225 582 0.740 10000.000 0.000 -1.340
116 348.00 1500.03 232 574 0.740 10000.000 0.000 -1.340
117 351.00 1500.03 230 574 0.740 10000.000 0.000 -1.340
118 354.00 1500.03 228 583 0.740 10000.000 0.000 -1.340
119 357.00 1500.03 210 549 0.740 10000.000 0.000 -1.340
120 360.00 1500.03 202 595 0.740 10000.000 0.000 -1.340
121 363.00 1500.03 213 603 0.740 10000.000 0.000 -1.340
122 366.00 1500.03 225 605 0.740 10000.000 0.000 -1.340
123 369.00 1500.03 222 595 0.740 10000.000 0.000 -1.340
124 372.00 1500.03 238 641 0.740 10000.000 0.000 -1.340
125 375.00 1500.03 196 598 0.740 10000.000 0.000 -1.340
126 378.00 1500.03 232 631 0.740 10000.000 0.000 -1.340
127 381.00 1500.03 229 642 0.740 10000.000 0.000 -1.340
128 384.00 1500.03 238 595 0.740 10000.000 0.000 -1.340
129 387.00 1500.03 243 614 0.740 10000.000 0.000 -1.340
130 390.00 1500.03 207 649 0.740 10000.000 0.000 -1.340
131 393.00 1500.03 239 644 0.740 10000.000 0.000 -1.340
132 396.00 1500.03 199 639 0.740 10000.000 0.000 -1.340
133 399.00 1500.03 232 639 0.740 10000.000 0.000 -1.340
134 402.00 1500.03 205 670 0.740 10000.000 0.000 -1.340
135 405.00 1500.03 218 615 0.740 10000.000 0.000 -1.340
136 408.00 1500.03 191 644 0.740 10000.000 0.000 -1.340
137 411.00 1500.03 212 630 0.740 10000.000 0.000 -1.340
138 414.00 1500.03 192 644 0.740 10000.000 0.000 -1.340
139 417.00 1500.03 232 622 0.740 10000.000 0.000 -1.340
140 420.00 1500.03 199 617 0.740 10000.000 0.000 -1.340
141 423.00 1500.03 192 622 0.740 10000.000 0.000 -1.340
142 426.00 1500.03 232 609 0.740 10000.000 0.000 -1.340
143 429.00 1500.03 227 629 0.740 10000.000 0.000 -1.340
144 432.00 1500.03 202 589 0.740 10000.000 0.000 -1.340
