# BinNR microsec tot-time (s)  O-Beam AUX Ampl(V) f(Hz) phase(deg) chi(pos)
0 0.00 1200.00 183 386 2.980 10000.000 0.000 -1.022
1 3.00 1200.00 336 734 2.980 10000.000 0.000 -1.022
2 6.00 1200.00 340 696 2.980 10000.000 0.000 -1.022
3 9.00 1200.00 340 651 2.980 10000.000 0.000 -1.022
4 12.00 1200.00 371 637 2.980 10000.000 0.000 -1.022
5 15.00 1200.00 316 534 2.980 10000.000 0.000 -1.022
6 18.00 1200.00 328 488 2.980 10000.000 0.000 -1.022
7 21.00 1200.00 306 438 2.980 10000.000 0.000 -1.022
8 24.00 1200.00 317 404 2.980 10000.000 0.000 -1.022
9 27.00 1200.00 311 336 2.980 10000.000 0.000 -1.022
10 30.00 1200.00 303 428 2.980 10000.000 0.000 -1.022
11 33.00 1200.00 241 462 2.980 10000.000 0.000 -1.022
12 36.00 1200.00 251 519 2.980 10000.000 0.000 -1.022
13 39.00 1200.00 189 600 2.980 10000.000 0.000 -1.022
14 42.00 1200.00 221 664 2.980 10000.000 0.000 -1.022
15 45.00 1200.00 210 793 2.980 10000.000 0.000 -1.022
16 48.00 1200.00 209 902 2.980 10000.000 0.000 -1.022
17 51.00 1200.00 167 870 2.980 10000.000 0.000 -1.022
18 54.00 1200.00 191 936 2.980 10000.000 0.000 -1.022
19 57.00 1200.00 167 1000 2.980 10000.000 0.000 -1.022
20 60.00 1200.00 207 938 2.980 10000.000 0.000 -1.022
21 63.00 1200.00 245 936 2.980 10000.000 0.000 -1.022
22 66.00 1200.00 229 1035 2.980 10000.000 0.000 -1.022
23 69.00 1200.00 243 973 2.980 10000.000 0.000 -1.022
24 72.00 1200.00 283 957 2.980 10000.000 0.000 -1.022
25 75.00 1200.00 266 924 2.980 10000.000 0.000 -1.022
26 78.00 1200.00 288 961 2.980 10000.000 0.000 -1.022
27 81.00 1200.00 265 975 2.980 10000.000 0.000 -1.022
28 84.00 1200.00 320 873 2.980 10000.000 0.000 -1.022
29 87.00 1200.00 344 816 2.980 10000.000 0.000 -1.022
30 90.00 1200.00 348 761 2.980 10000.000 0.000 -1.022
31 93.00 1200.00 384 647 2.980 10000.000 0.000 -1.022
32 96.00 1200.00 332 594 2.980 10000.000 0.000 -1.022
33 99.00 1200.00 348 490 2.980 10000.000 0.000 -1.022
34 102.00 1200.00 348 401 2.980 10000.000 0.000 -1.022
35 105.00 1200.00 322 324 2.980 10000.000 0.000 -1.022
36 108.00 1200.00 358 325 2.980 10000.000 0.000 -1.022
37 111.00 1200.00 335 273 2.980 10000.000 0.000 -1.022
38 114.00 1200.00 325 305 2.980 10000.000 0.000 -1.022
39 117.00 1200.00 344 281 2.980 10000.000 0.000 -1.022
40 120.00 1200.00 327 304 2.980 10000.000 0.000 -1.022
41 123.00 1200.00 299 326 2.980 10000.000 0.000 -1.022
42 126.00 1200.00 340 323 2.980 10000.000 0.000 -1.022
43 129.00 1200.00 264 416 2.980 10000.000 0.000 -1.022
44 132.00 1200.00 263 473 2.980 10000.000 0.000 -1.022
45 135.00 1200.00 246 561 2.980 10000.000 0.000 -1.022
46 138.00 1200.00 254 599 2.980 10000.000 0.000 -1.022
47 141.00 1200.00 217 706 2.980 10000.000 0.000 -1.022
48 144.00 1200.00 214 789 2.980 10000.000 0.000 -1.022
49 147.00 1200.00 181 848 2.980 10000.000 0.000 -1.022
50 150.00 1200.00 174 866 2.980 10000.000 0.000 -1.022
51 153.00 1200.00 178 972 2.980 10000.000 0.000 -1.022
52 156.00 1200.00 183 971 2.980 10000.000 0.000 -1.022
53 159.00 1200.00 187 967 2.980 10000.000 0.000 -1.022
54 162.00 1200.00 180 985 2.980 10000.000 0.000 -1.022
55 165.00 1200.00 222 954 2.980 10000.000 0.000 -1.022
56 168.00 1200.00 217 982 2.980 10000.000 0.000 -1.022
57 171.00 1200.00 252 912 2.980 10000.000 0.000 -1.022
58 174.00 1200.00 250 914 2.980 10000.000 0.000 -1.022
59 177.00 1200.00 261 953 2.980 10000.000 0.000 -1.022
60 180.00 1200.00 315 978 2.980 10000.000 0.000 -1.022
61 183.00 1200.00 309 883 2.980 10000.000 0.000 -1.022
62 186.00 1200.00 328 801 2.980 10000.000 0.000 -1.022
63 189.00 1200.00 311 807 2.980 10000.000 0.000 -1.022
64 192.00 1200.00 368 688 2.980 10000.000 0.000 -1.022
65 195.00 1200.00 307 622 2.980 10000.000 0.000 -1.022
66 198.00 1200.00 316 554 2.980 10000.000 0.000 -1.022
67 201.00 1200.00 378 464 2.980 10000.000 0.000 -1.022
68 204.00 1200.00 343 400 2.980 10000.000 0.000 -1.022
69 207.00 1200.00 312 322 2.980 10000.000 0.000 -1.022
70 210.00 1200.00 345 296 2.980 10000.000 0.000 -1.022
71 213.00 1200.00 336 294 2.980 10000.000 0.000 -1.022
72 216.00 1200.00 342 336 2.980 10000.000 0.000 -1.022
73 219.00 1200.00 316 263 2.980 10000.000 0.000 -1.022
74 222.00 1200.00 348 318 2.980 10000.000 0.000 -1.022
75 225.00 1200.00 298 326 2.980 10000.000 0.000 -1.022
76 228.00 1200.00 288 408 2.980 10000.000 0.000 -1.022
77 231.00 1200.00 285 436 2.980 10000.000 0.000 -1.022
78 234.00 1200.00 287 507 2.980 10000.000 0.000 -1.022
79 237.00 1200.00 222 592 2.980 10000.000 0.000 -1.022
80 240.00 1200.00 220 672 2.980 10000.000 0.000 -1.022
81 243.00 1200.00 219 772 2.980 10000.000 0.000 -1.022
82 246.00 1200.00 202 823 2.980 10000.000 0.000 -1.022
83 249.00 1200.00 224 879 2.980 10000.000 0.000 -1.022
84 252.00 1200.00 250 937 2.980 10000.000 0.000 -1.022
85 255.00 1200.00 252 910 2.980 10000.000 0.000 -1.022
86 258.00 1200.00 252 946 2.980 10000.000 0.000 -1.022
87 261.00 1200.00 270 900 2.980 10000.000 0.000 -1.022
88 264.00 1200.00 295 909 2.980 10000.000 0.000 -1.022
89 267.00 1200.00 297 948 2.980 10000.000 0.000 -1.022
90 270.00 1200.00 300 1037 2.980 10000.000 0.000 -1.022
91 273.00 1200.00 293 937 2.980 10000.000 0.000 -1.022
92 276.00 1200.00 312 989 2.980 10000.000 0.000 -1.022
93 279.00 1200.00 282 898 2.980 10000.000 0.000 -1.022
94 282.00 1200.00 254 860 2.980 10000.000 0.000 -1.022
95 285.00 1200.00 235 802 2.980 10000.000 0.000 -1.022
96 288.00 1200.00 251 790 2.980 10000.000 0.000 -1.022
97 291.00 1200.00 266 730 2.980 10000.000 0.000 -1.022
98 294.00 1200.00 226 633 2.980 10000.000 0.000 -1.022
99 297.00 1200.00 229 536 2.980 10000.000 0.000 -1.022
100 300.00 1200.00 241 455 2.980 10000.000 0.000 -1.022
101 303.00 1200.00 217 388 2.980 10000.000 0.000 -1.022
102 306.00 1200.00 247 354 2.980 10000.000 0.000 -1.022
103 309.00 1200.00 249 313 2.980 10000.000 0.000 -1.022
104 312.00 1200.00 293 296 2.980 10000.000 0.000 -1.022
105 315.00 1200.00 335 249 2.980 10000.000 0.000 -1.022
106 318.00 1200.00 321 300 2.980 10000.000 0.000 -1.022
107 321.00 1200.00 331 297 2.980 10000.000 0.000 -1.022
108 324.00 1200.00 369 316 2.980 10000.000 0.000 -1.022
109 327.00 1200.00 296 360 2.980 10000.000 0.000 -1.022
110 330.00 1200.00 379 449 2.980 10000.000 0.000 -1.022
111 333.00 1200.00 343 515 2.980 10000.000 0.000 -1.022
112 336.00 1200.00 333 555 2.980 10000.000 0.000 -1.022
113 339.00 1200.00 331 666 2.980 10000.000 0.000 -1.022
114 342.00 1200.00 346 743 2.980 10000.000 0.000 -1.022
115 345.00 1200.00 334 834 2.980 10000.000 0.000 -1.022
116 348.00 1200.00 340 878 2.980 10000.000 0.000 -1.022
117 351.00 1200.00 329 875 2.980 10000.000 0.000 -1.022
118 354.00 1200.00 334 940 2.980 10000.000 0.000 -1.022
119 357.00 1200.00 325 968 2.980 10000.000 0.000 -1.022
120 360.00 1200.00 310 987 2.980 10000.000 0.000 -1.022
121 363.00 1200.00 298 930 2.980 10000.000 0.000 -1.022
122 366.00 1200.00 288 1007 2.980 10000.000 0.000 -1.022
123 369.00 1200.00 255 960 2.980 10000.000 0.000 -1.022
124 372.00 1200.00 256 1061 2.980 10000.000 0.000 -1.022
125 375.00 1200.00 206 961 2.980 10000.000 0.000 -1.022
126 378.00 1200.00 238 976 2.980 10000.000 0.000 -1.022
127 381.00 1200.00 199 990 2.980 10000.000 0.000 -1.022
128 384.00 1200.00 187 885 2.980 10000.000 0.000 -1.022
129 387.00 1200.00 168 762 2.980 10000.000 0.000 -1.022
130 390.00 1200.00 206 724 2.980 10000.000 0.000 -1.022
131 393.00 1200.00 194 656 2.980 10000.000 0.000 -1.022
132 396.00 1200.00 205 565 2.980 10000.000 0.000 -1.022
133 399.00 1200.00 227 479 2.980 10000.000 0.000 -1.022
134 402.00 1200.00 217 436 2.980 10000.000 0.000 -1.022
135 405.00 1200.00 260 372 2.980 10000.000 0.000 -1.022
136 408.00 1200.00 281 375 2.980 10000.000 0.000 -1.022
137 411.00 1200.00 261 329 2.980 10000.000 0.000 -1.022
138 414.00 1200.00 278 405 2.980 10000.000 0.000 -1.022
139 417.00 1200.00 343 432 2.980 10000.000 0.000 -1.022
140 420.00 1200.00 321 547 2.980 10000.000 0.000 -1.022
141 423.00 1200.00 387 652 2.980 10000.000 0.000 -1.022
