# BinNR microsec tot-time (s)  O-Beam AUX Ampl(V) f(Hz) phase(deg) chi(pos)
0 0.00 1200.01 176 404 1.620 10000.000 0.000 -0.582
1 3.00 1200.01 362 780 1.620 10000.000 0.000 -0.582
2 6.00 1200.01 328 757 1.620 10000.000 0.000 -0.582
3 9.00 1200.01 341 721 1.620 10000.000 0.000 -0.582
4 12.00 1200.01 347 778 1.620 10000.000 0.000 -0.582
5 15.00 1200.01 321 695 1.620 10000.000 0.000 -0.582
6 18.00 1200.01 326 654 1.620 10000.000 0.000 -0.582
7 21.00 1200.01 332 654 1.620 10000.000 0.000 -0.582
8 24.00 1200.01 327 607 1.620 10000.000 0.000 -0.582
9 27.00 1200.01 291 626 1.620 10000.000 0.000 -0.582
10 30.00 1200.01 300 611 1.620 10000.000 0.000 -0.582
11 33.00 1200.01 292 614 1.620 10000.000 0.000 -0.582
12 36.00 1200.01 268 706 1.620 10000.000 0.000 -0.582
13 39.00 1200.01 278 699 1.620 10000.000 0.000 -0.582
14 42.00 1200.01 267 777 1.620 10000.000 0.000 -0.582
15 45.00 1200.01 269 821 1.620 10000.000 0.000 -0.582
16 48.00 1200.01 250 837 1.620 10000.000 0.000 -0.582
17 51.00 1200.01 266 855 1.620 10000.000 0.000 -0.582
18 54.00 1200.01 262 937 1.620 10000.000 0.000 -0.582
19 57.00 1200.01 258 938 1.620 10000.000 0.000 -0.582
20 60.00 1200.01 300 920 1.620 10000.000 0.000 -0.582
21 63.00 1200.01 257 887 1.620 10000.000 0.000 -0.582
22 66.00 1200.01 287 924 1.620 10000.000 0.000 -0.582
23 69.00 1200.01 277 916 1.620 10000.000 0.000 -0.582
24 72.00 1200.01 317 939 1.620 10000.000 0.000 -0.582
25 75.00 1200.01 279 889 1.620 10000.000 0.000 -0.582
26 78.00 1200.01 315 834 1.620 10000.000 0.000 -0.582
27 81.00 1200.01 312 899 1.620 10000.000 0.000 -0.582
28 84.00 1200.01 329 898 1.620 10000.000 0.000 -0.582
29 87.00 1200.01 341 770 1.620 10000.000 0.000 -0.582
30 90.00 1200.01 325 772 1.620 10000.000 0.000 -0.582
31 93.00 1200.01 348 738 1.620 10000.000 0.000 -0.582
32 96.00 1200.01 322 677 1.620 10000.000 0.000 -0.582
33 99.00 1200.01 373 725 1.620 10000.000 0.000 -0.582
34 102.00 1200.01 335 643 1.620 10000.000 0.000 -0.582
35 105.00 1200.01 347 577 1.620 10000.000 0.000 -0.582
36 108.00 1200.01 370 596 1.620 10000.000 0.000 -0.582
37 111.00 1200.01 346 534 1.620 10000.000 0.000 -0.582
38 114.00 1200.01 332 534 1.620 10000.000 0.000 -0.582
39 117.00 1200.01 318 544 1.620 10000.000 0.000 -0.582
40 120.00 1200.01 339 551 1.620 10000.000 0.000 -0.582
41 123.00 1200.01 357 544 1.620 10000.000 0.000 -0.582
42 126.00 1200.01 309 621 1.620 10000.000 0.000 -0.582
43 129.00 1200.01 290 600 1.620 10000.000 0.000 -0.582
44 132.00 1200.01 295 710 1.620 10000.000 0.000 -0.582
45 135.00 1200.01 257 672 1.620 10000.000 0.000 -0.582
46 138.00 1200.01 290 703 1.620 10000.000 0.000 -0.582
47 141.00 1200.01 303 760 1.620 10000.000 0.000 -0.582
48 144.00 1200.01 276 833 1.620 10000.000 0.000 -0.582
49 147.00 1200.01 257 833 1.620 10000.000 0.000 -0.582
50 150.00 1200.01 306 899 1.620 10000.000 0.000 -0.582
51 153.00 1200.01 246 875 1.620 10000.000 0.000 -0.582
52 156.00 1200.01 267 911 1.620 10000.000 0.000 -0.582
53 159.00 1200.01 291 896 1.620 10000.000 0.000 -0.582
54 162.00 1200.01 298 916 1.620 10000.000 0.000 -0.582
55 165.00 1200.01 274 876 1.620 10000.000 0.000 -0.582
56 168.00 1200.01 274 954 1.620 10000.000 0.000 -0.582
57 171.00 1200.01 312 928 1.620 10000.000 0.000 -0.582
58 174.00 1200.01 333 906 1.620 10000.000 0.000 -0.582
59 177.00 1200.01 316 948 1.620 10000.000 0.000 -0.582
60 180.00 1200.01 307 920 1.620 10000.000 0.000 -0.582
61 183.00 1200.01 343 834 1.620 10000.000 0.000 -0.582
62 186.00 1200.01 327 803 1.620 10000.000 0.000 -0.582
63 189.00 1200.01 330 838 1.620 10000.000 0.000 -0.582
64 192.00 1200.01 344 772 1.620 10000.000 0.000 -0.582
65 195.00 1200.01 343 736 1.620 10000.000 0.000 -0.582
66 198.00 1200.01 370 656 1.620 10000.000 0.000 -0.582
67 201.00 1200.01 352 647 1.620 10000.000 0.000 -0.582
68 204.00 1200.01 364 612 1.620 10000.000 0.000 -0.582
69 207.00 1200.01 325 594 1.620 10000.000 0.000 -0.582
70 210.00 1200.01 351 561 1.620 10000.000 0.000 -0.582
71 213.00 1200.01 324 593 1.620 10000.000 0.000 -0.582
72 216.00 1200.01 339 541 1.620 10000.000 0.000 -0.582
73 219.00 1200.01 331 550 1.620 10000.000 0.000 -0.582
74 222.00 1200.01 315 567 1.620 10000.000 0.000 -0.582
75 225.00 1200.01 315 577 1.620 10000.000 0.000 -0.582
76 228.00 1200.01 335 637 1.620 10000.000 0.000 -0.582
77 231.00 1200.01 325 633 1.620 10000.000 0.000 -0.582
78 234.00 1200.01 290 704 1.620 10000.000 0.000 -0.582
79 237.00 1200.01 280 750 1.620 10000.000 0.000 -0.582
80 240.00 1200.01 281 780 1.620 10000.000 0.000 -0.582
81 243.00 1200.01 313 752 1.620 10000.000 0.000 -0.582
82 246.00 1200.01 281 848 1.620 10000.000 0.000 -0.582
83 249.00 1200.01 297 835 1.620 10000.000 0.000 -0.582
84 252.00 1200.01 299 910 1.620 10000.000 0.000 -0.582
85 255.00 1200.01 301 818 1.620 10000.000 0.000 -0.582
86 258.00 1200.01 320 924 1.620 10000.000 0.000 -0.582
87 261.00 1200.01 264 922 1.620 10000.000 0.000 -0.582
88 264.00 1200.01 303 945 1.620 10000.000 0.000 -0.582
89 267.00 1200.01 347 967 1.620 10000.000 0.000 -0.582
90 270.00 1200.01 313 915 1.620 10000.000 0.000 -0.582
91 273.00 1200.01 291 928 1.620 10000.000 0.000 -0.582
92 276.00 1200.01 326 965 1.620 10000.000 0.000 -0.582
93 279.00 1200.01 303 882 1.620 10000.000 0.000 -0.582
94 282.00 1200.01 276 889 1.620 10000.000 0.000 -0.582
95 285.00 1200.01 312 777 1.620 10000.000 0.000 -0.582
96 288.00 1200.01 294 836 1.620 10000.000 0.000 -0.582
97 291.00 1200.01 255 746 1.620 10000.000 0.000 -0.582
98 294.00 1200.01 302 723 1.620 10000.000 0.000 -0.582
99 297.00 1200.01 293 706 1.620 10000.000 0.000 -0.582
100 300.00 1200.01 293 702 1.620 10000.000 0.000 -0.582
101 303.00 1200.01 270 596 1.620 10000.000 0.000 -0.582
102 306.00 1200.01 269 601 1.620 10000.000 0.000 -0.582
103 309.00 1200.01 290 611 1.620 10000.000 0.000 -0.582
104 312.00 1200.01 299 581 1.620 10000.000 0.000 -0.582
105 315.00 1200.01 354 556 1.620 10000.000 0.000 -0.582
106 318.00 1200.01 347 545 1.620 10000.000 0.000 -0.582
107 321.00 1200.01 324 538 1.620 10000.000 0.000 -0.582
108 324.00 1200.01 331 559 1.620 10000.000 0.000 -0.582
109 327.00 1200.01 315 609 1.620 10000.000 0.000 -0.582
110 330.00 1200.01 352 651 1.620 10000.000 0.000 -0.582
111 333.00 1200.01 313 660 1.620 10000.000 0.000 -0.582
112 336.00 1200.01 356 719 1.620 10000.000 0.000 -0.582
113 339.00 1200.01 340 730 1.620 10000.000 0.000 -0.582
114 342.00 1200.01 361 785 1.620 10000.000 0.000 -0.582
115 345.00 1200.01 292 721 1.620 10000.000 0.000 -0.582
116 348.00 1200.01 319 848 1.620 10000.000 0.000 -0.582
117 351.00 1200.01 355 887 1.620 10000.000 0.000 -0.582
118 354.00 1200.01 310 858 1.620 10000.000 0.000 -0.582
119 357.00 1200.01 298 946 1.620 10000.000 0.000 -0.582
120 360.00 1200.01 324 911 1.620 10000.000 0.000 -0.582
121 363.00 1200.01 303 909 1.620 10000.000 0.000 -0.582
122 366.00 1200.01 295 967 1.620 10000.000 0.000 -0.582
123 369.00 1200.01 300 962 1.620 10000.000 0.000 -0.582
124 372.00 1200.01 296 921 1.620 10000.000 0.000 -0.582
125 375.00 1200.01 294 906 1.620 10000.000 0.000 -0.582
126 378.00 1200.01 262 912 1.620 10000.000 0.000 -0.582
127 381.00 1200.01 265 859 1.620 10000.000 0.000 -0.582
128 384.00 1200.01 286 835 1.620 10000.000 0.000 -0.582
129 387.00 1200.01 240 783 1.620 10000.000 0.000 -0.582
130 390.00 1200.01 261 761 1.620 10000.000 0.000 -0.582
131 393.00 1200.01 274 710 1.620 10000.000 0.000 -0.582
132 396.00 1200.01 274 733 1.620 10000.000 0.000 -0.582
133 399.00 1200.01 263 646 1.620 10000.000 0.000 -0.582
134 402.00 1200.01 303 638 1.620 10000.000 0.000 -0.582
135 405.00 1200.01 295 594 1.620 10000.000 0.000 -0.582
136 408.00 1200.01 298 579 1.620 10000.000 0.000 -0.582
137 411.00 1200.01 293 594 1.620 10000.000 0.000 -0.582
138 414.00 1200.01 366 640 1.620 10000.000 0.000 -0.582
139 417.00 1200.01 357 614 1.620 10000.000 0.000 -0.582
140 420.00 1200.01 282 705 1.620 10000.000 0.000 -0.582
141 423.00 1200.01 328 717 1.620 10000.000 0.000 -0.582
