# BinNR microsec tot-time (s)  O-Beam AUX Ampl(V) f(Hz) phase(deg) chi(pos)
0 0.00 1200.01 181 359 1.960 10000.000 0.000 -0.659
1 3.00 1200.01 320 758 1.960 10000.000 0.000 -0.659
2 6.00 1200.01 370 775 1.960 10000.000 0.000 -0.659
3 9.00 1200.01 359 739 1.960 10000.000 0.000 -0.659
4 12.00 1200.01 345 733 1.960 10000.000 0.000 -0.659
5 15.00 1200.01 322 627 1.960 10000.000 0.000 -0.659
6 18.00 1200.01 354 600 1.960 10000.000 0.000 -0.659
7 21.00 1200.01 313 577 1.960 10000.000 0.000 -0.659
8 24.00 1200.01 314 545 1.960 10000.000 0.000 -0.659
9 27.00 1200.01 283 521 1.960 10000.000 0.000 -0.659
10 30.00 1200.01 310 552 1.960 10000.000 0.000 -0.659
11 33.00 1200.01 280 620 1.960 10000.000 0.000 -0.659
12 36.00 1200.01 312 606 1.960 10000.000 0.000 -0.659
13 39.00 1200.01 281 665 1.960 10000.000 0.000 -0.659
14 42.00 1200.01 265 763 1.960 10000.000 0.000 -0.659
15 45.00 1200.01 217 776 1.960 10000.000 0.000 -0.659
16 48.00 1200.01 250 815 1.960 10000.000 0.000 -0.659
17 51.00 1200.01 232 893 1.960 10000.000 0.000 -0.659
18 54.00 1200.01 232 943 1.960 10000.000 0.000 -0.659
19 57.00 1200.01 230 898 1.960 10000.000 0.000 -0.659
20 60.00 1200.01 262 958 1.960 10000.000 0.000 -0.659
21 63.00 1200.01 252 941 1.960 10000.000 0.000 -0.659
22 66.00 1200.01 249 954 1.960 10000.000 0.000 -0.659
23 69.00 1200.01 265 907 1.960 10000.000 0.000 -0.659
24 72.00 1200.01 311 981 1.960 10000.000 0.000 -0.659
25 75.00 1200.01 288 961 1.960 10000.000 0.000 -0.659
26 78.00 1200.01 300 1000 1.960 10000.000 0.000 -0.659
27 81.00 1200.01 301 878 1.960 10000.000 0.000 -0.659
28 84.00 1200.01 355 838 1.960 10000.000 0.000 -0.659
29 87.00 1200.01 322 810 1.960 10000.000 0.000 -0.659
30 90.00 1200.01 369 789 1.960 10000.000 0.000 -0.659
31 93.00 1200.01 379 701 1.960 10000.000 0.000 -0.659
32 96.00 1200.01 369 693 1.960 10000.000 0.000 -0.659
33 99.00 1200.01 317 563 1.960 10000.000 0.000 -0.659
34 102.00 1200.01 356 549 1.960 10000.000 0.000 -0.659
35 105.00 1200.01 341 477 1.960 10000.000 0.000 -0.659
36 108.00 1200.01 328 450 1.960 10000.000 0.000 -0.659
37 111.00 1200.01 328 498 1.960 10000.000 0.000 -0.659
38 114.00 1200.01 313 463 1.960 10000.000 0.000 -0.659
39 117.00 1200.01 369 477 1.960 10000.000 0.000 -0.659
40 120.00 1200.01 298 504 1.960 10000.000 0.000 -0.659
41 123.00 1200.01 316 502 1.960 10000.000 0.000 -0.659
42 126.00 1200.01 324 515 1.960 10000.000 0.000 -0.659
43 129.00 1200.01 313 530 1.960 10000.000 0.000 -0.659
44 132.00 1200.01 298 587 1.960 10000.000 0.000 -0.659
45 135.00 1200.01 293 690 1.960 10000.000 0.000 -0.659
46 138.00 1200.01 278 736 1.960 10000.000 0.000 -0.659
47 141.00 1200.01 235 753 1.960 10000.000 0.000 -0.659
48 144.00 1200.01 227 869 1.960 10000.000 0.000 -0.659
49 147.00 1200.01 250 859 1.960 10000.000 0.000 -0.659
50 150.00 1200.01 236 928 1.960 10000.000 0.000 -0.659
51 153.00 1200.01 262 894 1.960 10000.000 0.000 -0.659
52 156.00 1200.01 252 992 1.960 10000.000 0.000 -0.659
53 159.00 1200.01 235 954 1.960 10000.000 0.000 -0.659
54 162.00 1200.01 247 948 1.960 10000.000 0.000 -0.659
55 165.00 1200.01 265 919 1.960 10000.000 0.000 -0.659
56 168.00 1200.01 268 955 1.960 10000.000 0.000 -0.659
57 171.00 1200.01 288 898 1.960 10000.000 0.000 -0.659
58 174.00 1200.01 274 942 1.960 10000.000 0.000 -0.659
59 177.00 1200.01 294 928 1.960 10000.000 0.000 -0.659
60 180.00 1200.01 333 900 1.960 10000.000 0.000 -0.659
61 183.00 1200.01 319 858 1.960 10000.000 0.000 -0.659
62 186.00 1200.01 356 796 1.960 10000.000 0.000 -0.659
63 189.00 1200.01 382 722 1.960 10000.000 0.000 -0.659
64 192.00 1200.01 362 758 1.960 10000.000 0.000 -0.659
65 195.00 1200.01 300 637 1.960 10000.000 0.000 -0.659
66 198.00 1200.01 338 586 1.960 10000.000 0.000 -0.659
67 201.00 1200.01 370 573 1.960 10000.000 0.000 -0.659
68 204.00 1200.01 374 522 1.960 10000.000 0.000 -0.659
69 207.00 1200.01 356 481 1.960 10000.000 0.000 -0.659
70 210.00 1200.01 347 465 1.960 10000.000 0.000 -0.659
71 213.00 1200.01 338 443 1.960 10000.000 0.000 -0.659
72 216.00 1200.01 338 420 1.960 10000.000 0.000 -0.659
73 219.00 1200.01 349 505 1.960 10000.000 0.000 -0.659
74 222.00 1200.01 309 456 1.960 10000.000 0.000 -0.659
75 225.00 1200.01 326 462 1.960 10000.000 0.000 -0.659
76 228.00 1200.01 302 532 1.960 10000.000 0.000 -0.659
77 231.00 1200.01 275 598 1.960 10000.000 0.000 -0.659
78 234.00 1200.01 291 617 1.960 10000.000 0.000 -0.659
79 237.00 1200.01 302 628 1.960 10000.000 0.000 -0.659
80 240.00 1200.01 242 721 1.960 10000.000 0.000 -0.659
81 243.00 1200.01 241 748 1.960 10000.000 0.000 -0.659
82 246.00 1200.01 261 794 1.960 10000.000 0.000 -0.659
83 249.00 1200.01 250 856 1.960 10000.000 0.000 -0.659
84 252.00 1200.01 275 932 1.960 10000.000 0.000 -0.659
85 255.00 1200.01 288 932 1.960 10000.000 0.000 -0.659
86 258.00 1200.01 270 988 1.960 10000.000 0.000 -0.659
87 261.00 1200.01 298 985 1.960 10000.000 0.000 -0.659
88 264.00 1200.01 309 955 1.960 10000.000 0.000 -0.659
89 267.00 1200.01 296 1005 1.960 10000.000 0.000 -0.659
90 270.00 1200.01 332 952 1.960 10000.000 0.000 -0.659
91 273.00 1200.01 321 984 1.960 10000.000 0.000 -0.659
92 276.00 1200.01 297 993 1.960 10000.000 0.000 -0.659
93 279.00 1200.01 327 927 1.960 10000.000 0.000 -0.659
94 282.00 1200.01 310 936 1.960 10000.000 0.000 -0.659
95 285.00 1200.01 291 827 1.960 10000.000 0.000 -0.659
96 288.00 1200.01 252 807 1.960 10000.000 0.000 -0.659
97 291.00 1200.01 261 771 1.960 10000.000 0.000 -0.659
98 294.00 1200.01 253 680 1.960 10000.000 0.000 -0.659
99 297.00 1200.01 246 632 1.960 10000.000 0.000 -0.659
100 300.00 1200.01 253 629 1.960 10000.000 0.000 -0.659
101 303.00 1200.01 271 538 1.960 10000.000 0.000 -0.659
102 306.00 1200.01 275 552 1.960 10000.000 0.000 -0.659
103 309.00 1200.01 292 463 1.960 10000.000 0.000 -0.659
104 312.00 1200.01 291 457 1.960 10000.000 0.000 -0.659
105 315.00 1200.01 301 445 1.960 10000.000 0.000 -0.659
106 318.00 1200.01 313 390 1.960 10000.000 0.000 -0.659
107 321.00 1200.01 332 478 1.960 10000.000 0.000 -0.659
108 324.00 1200.01 361 481 1.960 10000.000 0.000 -0.659
109 327.00 1200.01 312 526 1.960 10000.000 0.000 -0.659
110 330.00 1200.01 334 585 1.960 10000.000 0.000 -0.659
111 333.00 1200.01 320 590 1.960 10000.000 0.000 -0.659
112 336.00 1200.01 344 613 1.960 10000.000 0.000 -0.659
113 339.00 1200.01 335 717 1.960 10000.000 0.000 -0.659
114 342.00 1200.01 347 803 1.960 10000.000 0.000 -0.659
115 345.00 1200.01 324 777 1.960 10000.000 0.000 -0.659
116 348.00 1200.01 345 902 1.960 10000.000 0.000 -0.659
117 351.00 1200.01 351 898 1.960 10000.000 0.000 -0.659
118 354.00 1200.01 331 926 1.960 10000.000 0.000 -0.659
119 357.00 1200.01 307 888 1.960 10000.000 0.000 -0.659
120 360.00 1200.01 320 971 1.960 10000.000 0.000 -0.659
121 363.00 1200.01 299 904 1.960 10000.000 0.000 -0.659
122 366.00 1200.01 313 946 1.960 10000.000 0.000 -0.659
123 369.00 1200.01 275 937 1.960 10000.000 0.000 -0.659
124 372.00 1200.01 244 972 1.960 10000.000 0.000 -0.659
125 375.00 1200.01 267 925 1.960 10000.000 0.000 -0.659
126 378.00 1200.01 241 912 1.960 10000.000 0.000 -0.659
127 381.00 1200.01 257 871 1.960 10000.000 0.000 -0.659
128 384.00 1200.01 248 848 1.960 10000.000 0.000 -0.659
129 387.00 1200.01 272 819 1.960 10000.000 0.000 -0.659
130 390.00 1200.01 229 786 1.960 10000.000 0.000 -0.659
131 393.00 1200.01 250 722 1.960 10000.000 0.000 -0.659
132 396.00 1200.01 260 654 1.960 10000.000 0.000 -0.659
133 399.00 1200.01 246 579 1.960 10000.000 0.000 -0.659
134 402.00 1200.01 252 558 1.960 10000.000 0.000 -0.659
135 405.00 1200.01 314 510 1.960 10000.000 0.000 -0.659
136 408.00 1200.01 322 490 1.960 10000.000 0.000 -0.659
137 411.00 1200.01 270 481 1.960 10000.000 0.000 -0.659
138 414.00 1200.01 328 569 1.960 10000.000 0.000 -0.659
139 417.00 1200.01 320 578 1.960 10000.000 0.000 -0.659
140 420.00 1200.01 339 667 1.960 10000.000 0.000 -0.659
141 423.00 1200.01 366 665 1.960 10000.000 0.000 -0.659
