# BinNR microsec tot-time (s)  O-Beam AUX Ampl(V) f(Hz) phase(deg) chi(pos)
0 0.00 1200.01 152 463 0.940 10000.000 0.000 -0.450
1 3.00 1200.01 346 797 0.940 10000.000 0.000 -0.450
2 6.00 1200.01 382 861 0.940 10000.000 0.000 -0.450
3 9.00 1200.01 374 845 0.940 10000.000 0.000 -0.450
4 12.00 1200.01 320 841 0.940 10000.000 0.000 -0.450
5 15.00 1200.01 365 851 0.940 10000.000 0.000 -0.450
6 18.00 1200.01 364 875 0.940 10000.000 0.000 -0.450
7 21.00 1200.01 346 796 0.940 10000.000 0.000 -0.450
8 24.00 1200.01 330 737 0.940 10000.000 0.000 -0.450
9 27.00 1200.01 325 736 0.940 10000.000 0.000 -0.450
10 30.00 1200.01 329 759 0.940 10000.000 0.000 -0.450
11 33.00 1200.01 300 764 0.940 10000.000 0.000 -0.450
12 36.00 1200.01 327 810 0.940 10000.000 0.000 -0.450
13 39.00 1200.01 303 873 0.940 10000.000 0.000 -0.450
14 42.00 1200.01 291 858 0.940 10000.000 0.000 -0.450
15 45.00 1200.01 296 814 0.940 10000.000 0.000 -0.450
16 48.00 1200.01 304 886 0.940 10000.000 0.000 -0.450
17 51.00 1200.01 312 903 0.940 10000.000 0.000 -0.450
18 54.00 1200.01 325 882 0.940 10000.000 0.000 -0.450
19 57.00 1200.01 277 886 0.940 10000.000 0.000 -0.450
20 60.00 1200.01 337 919 0.940 10000.000 0.000 -0.450
21 63.00 1200.01 313 987 0.940 10000.000 0.000 -0.450
22 66.00 1200.01 362 1001 0.940 10000.000 0.000 -0.450
23 69.00 1200.01 337 925 0.940 10000.000 0.000 -0.450
24 72.00 1200.01 324 932 0.940 10000.000 0.000 -0.450
25 75.00 1200.01 316 894 0.940 10000.000 0.000 -0.450
26 78.00 1200.01 319 938 0.940 10000.000 0.000 -0.450
27 81.00 1200.01 343 874 0.940 10000.000 0.000 -0.450
28 84.00 1200.01 329 903 0.940 10000.000 0.000 -0.450
29 87.00 1200.01 341 867 0.940 10000.000 0.000 -0.450
30 90.00 1200.01 346 907 0.940 10000.000 0.000 -0.450
31 93.00 1200.01 342 869 0.940 10000.000 0.000 -0.450
32 96.00 1200.01 380 770 0.940 10000.000 0.000 -0.450
33 99.00 1200.01 327 790 0.940 10000.000 0.000 -0.450
34 102.00 1200.01 347 757 0.940 10000.000 0.000 -0.450
35 105.00 1200.01 344 751 0.940 10000.000 0.000 -0.450
36 108.00 1200.01 358 766 0.940 10000.000 0.000 -0.450
37 111.00 1200.01 367 724 0.940 10000.000 0.000 -0.450
38 114.00 1200.01 365 756 0.940 10000.000 0.000 -0.450
39 117.00 1200.01 363 705 0.940 10000.000 0.000 -0.450
40 120.00 1200.01 329 776 0.940 10000.000 0.000 -0.450
41 123.00 1200.01 336 712 0.940 10000.000 0.000 -0.450
42 126.00 1200.01 370 731 0.940 10000.000 0.000 -0.450
43 129.00 1200.01 335 745 0.940 10000.000 0.000 -0.450
44 132.00 1200.01 329 811 0.940 10000.000 0.000 -0.450
45 135.00 1200.01 354 776 0.940 10000.000 0.000 -0.450
46 138.00 1200.01 316 848 0.940 10000.000 0.000 -0.450
47 141.00 1200.01 305 899 0.940 10000.000 0.000 -0.450
48 144.00 1200.01 346 849 0.940 10000.000 0.000 -0.450
49 147.00 1200.01 298 863 0.940 10000.000 0.000 -0.450
50 150.00 1200.01 304 968 0.940 10000.000 0.000 -0.450
51 153.00 1200.01 321 845 0.940 10000.000 0.000 -0.450
52 156.00 1200.01 292 865 0.940 10000.000 0.000 -0.450
53 159.00 1200.01 308 963 0.940 10000.000 0.000 -0.450
54 162.00 1200.01 325 949 0.940 10000.000 0.000 -0.450
55 165.00 1200.01 318 951 0.940 10000.000 0.000 -0.450
56 168.00 1200.01 348 959 0.940 10000.000 0.000 -0.450
57 171.00 1200.01 328 927 0.940 10000.000 0.000 -0.450
58 174.00 1200.01 377 954 0.940 10000.000 0.000 -0.450
59 177.00 1200.01 319 891 0.940 10000.000 0.000 -0.450
60 180.00 1200.01 325 907 0.940 10000.000 0.000 -0.450
61 183.00 1200.01 325 871 0.940 10000.000 0.000 -0.450
62 186.00 1200.01 345 864 0.940 10000.000 0.000 -0.450
63 189.00 1200.01 358 864 0.940 10000.000 0.000 -0.450
64 192.00 1200.01 356 835 0.940 10000.000 0.000 -0.450
65 195.00 1200.01 362 857 0.940 10000.000 0.000 -0.450
66 198.00 1200.01 361 770 0.940 10000.000 0.000 -0.450
67 201.00 1200.01 331 755 0.940 10000.000 0.000 -0.450
68 204.00 1200.01 333 730 0.940 10000.000 0.000 -0.450
69 207.00 1200.01 357 756 0.940 10000.000 0.000 -0.450
70 210.00 1200.01 359 714 0.940 10000.000 0.000 -0.450
71 213.00 1200.01 344 715 0.940 10000.000 0.000 -0.450
72 216.00 1200.01 335 698 0.940 10000.000 0.000 -0.450
73 219.00 1200.01 320 688 0.940 10000.000 0.000 -0.450
74 222.00 1200.01 354 701 0.940 10000.000 0.000 -0.450
75 225.00 1200.01 334 725 0.940 10000.000 0.000 -0.450
76 228.00 1200.01 330 774 0.940 10000.000 0.000 -0.450
77 231.00 1200.01 287 811 0.940 10000.000 0.000 -0.450
78 234.00 1200.01 325 862 0.940 10000.000 0.000 -0.450
79 237.00 1200.01 325 726 0.940 10000.000 0.000 -0.450
80 240.00 1200.01 283 825 0.940 10000.000 0.000 -0.450
81 243.00 1200.01 266 837 0.940 10000.000 0.000 -0.450
82 246.00 1200.01 334 858 0.940 10000.000 0.000 -0.450
83 249.00 1200.01 340 912 0.940 10000.000 0.000 -0.450
84 252.00 1200.01 339 936 0.940 10000.000 0.000 -0.450
85 255.00 1200.01 337 889 0.940 10000.000 0.000 -0.450
86 258.00 1200.01 336 898 0.940 10000.000 0.000 -0.450
87 261.00 1200.01 336 932 0.940 10000.000 0.000 -0.450
88 264.00 1200.01 353 930 0.940 10000.000 0.000 -0.450
89 267.00 1200.01 313 936 0.940 10000.000 0.000 -0.450
90 270.00 1200.01 308 955 0.940 10000.000 0.000 -0.450
91 273.00 1200.01 364 951 0.940 10000.000 0.000 -0.450
92 276.00 1200.01 313 940 0.940 10000.000 0.000 -0.450
93 279.00 1200.01 346 939 0.940 10000.000 0.000 -0.450
94 282.00 1200.01 337 931 0.940 10000.000 0.000 -0.450
95 285.00 1200.01 320 849 0.940 10000.000 0.000 -0.450
96 288.00 1200.01 333 933 0.940 10000.000 0.000 -0.450
97 291.00 1200.01 308 819 0.940 10000.000 0.000 -0.450
98 294.00 1200.01 374 761 0.940 10000.000 0.000 -0.450
99 297.00 1200.01 328 752 0.940 10000.000 0.000 -0.450
100 300.00 1200.01 314 806 0.940 10000.000 0.000 -0.450
101 303.00 1200.01 330 757 0.940 10000.000 0.000 -0.450
102 306.00 1200.01 295 738 0.940 10000.000 0.000 -0.450
103 309.00 1200.01 349 676 0.940 10000.000 0.000 -0.450
104 312.00 1200.01 361 709 0.940 10000.000 0.000 -0.450
105 315.00 1200.01 332 645 0.940 10000.000 0.000 -0.450
106 318.00 1200.01 352 789 0.940 10000.000 0.000 -0.450
107 321.00 1200.01 361 718 0.940 10000.000 0.000 -0.450
108 324.00 1200.01 336 747 0.940 10000.000 0.000 -0.450
109 327.00 1200.01 337 743 0.940 10000.000 0.000 -0.450
110 330.00 1200.01 335 771 0.940 10000.000 0.000 -0.450
111 333.00 1200.01 355 725 0.940 10000.000 0.000 -0.450
112 336.00 1200.01 342 832 0.940 10000.000 0.000 -0.450
113 339.00 1200.01 363 791 0.940 10000.000 0.000 -0.450
114 342.00 1200.01 351 831 0.940 10000.000 0.000 -0.450
115 345.00 1200.01 358 882 0.940 10000.000 0.000 -0.450
116 348.00 1200.01 349 884 0.940 10000.000 0.000 -0.450
117 351.00 1200.01 351 858 0.940 10000.000 0.000 -0.450
118 354.00 1200.01 353 981 0.940 10000.000 0.000 -0.450
119 357.00 1200.01 320 948 0.940 10000.000 0.000 -0.450
120 360.00 1200.01 330 936 0.940 10000.000 0.000 -0.450
121 363.00 1200.01 313 902 0.940 10000.000 0.000 -0.450
122 366.00 1200.01 356 1022 0.940 10000.000 0.000 -0.450
123 369.00 1200.01 288 999 0.940 10000.000 0.000 -0.450
124 372.00 1200.01 336 929 0.940 10000.000 0.000 -0.450
125 375.00 1200.01 285 863 0.940 10000.000 0.000 -0.450
126 378.00 1200.01 312 919 0.940 10000.000 0.000 -0.450
127 381.00 1200.01 314 841 0.940 10000.000 0.000 -0.450
128 384.00 1200.01 303 879 0.940 10000.000 0.000 -0.450
129 387.00 1200.01 329 900 0.940 10000.000 0.000 -0.450
130 390.00 1200.01 313 846 0.940 10000.000 0.000 -0.450
131 393.00 1200.01 305 801 0.940 10000.000 0.000 -0.450
132 396.00 1200.01 360 817 0.940 10000.000 0.000 -0.450
133 399.00 1200.01 325 772 0.940 10000.000 0.000 -0.450
134 402.00 1200.01 350 762 0.940 10000.000 0.000 -0.450
135 405.00 1200.01 294 738 0.940 10000.000 0.000 -0.450
136 408.00 1200.01 330 723 0.940 10000.000 0.000 -0.450
137 411.00 1200.01 323 734 0.940 10000.000 0.000 -0.450
138 414.00 1200.01 352 773 0.940 10000.000 0.000 -0.450
139 417.00 1200.01 360 774 0.940 10000.000 0.000 -0.450
140 420.00 1200.01 351 809 0.940 10000.000 0.000 -0.450
141 423.00 1200.01 346 858 0.940 10000.000 0.000 -0.450
