# BinNR microsec tot-time (s)  O-Beam H-beam AUX Ampl(V) f(Hz) phase(deg) chi(pos)
0 0.00 1200.00 125 1034 8 5.313 2000.000 0.000 1.351
1 25.00 1200.00 121 952 3 5.313 2000.000 0.000 1.351
2 50.00 1200.00 151 834 1 5.313 2000.000 0.000 1.351
3 75.00 1200.00 160 663 6 5.313 2000.000 0.000 1.351
4 100.00 1200.00 146 561 5 5.313 2000.000 0.000 1.351
5 125.00 1200.00 144 533 3 5.313 2000.000 0.000 1.351
6 150.00 1200.00 277 627 4 5.313 2000.000 0.000 1.351
7 175.00 1200.00 451 686 1 5.313 2000.000 0.000 1.351
8 200.00 1200.00 555 699 3 5.313 2000.000 0.000 1.351
9 225.00 1200.00 547 617 3 5.313 2000.000 0.000 1.351
10 250.00 1200.00 550 582 3 5.313 2000.000 0.000 1.351
11 275.00 1200.00 538 527 3 5.313 2000.000 0.000 1.351
12 300.00 1200.00 532 671 2 5.313 2000.000 0.000 1.351
13 325.00 1200.00 514 789 1 5.313 2000.000 0.000 1.351
14 350.00 1200.00 572 962 3 5.313 2000.000 0.000 1.351
15 375.00 1200.00 589 1005 1 5.313 2000.000 0.000 1.351
16 400.00 1200.00 609 1045 3 5.313 2000.000 0.000 1.351
17 425.00 1200.00 476 980 1 5.313 2000.000 0.000 1.351
18 450.00 1200.00 273 1039 1 5.313 2000.000 0.000 1.351
19 475.00 1200.00 152 1035 4 5.313 2000.000 0.000 1.351
20 500.00 1200.00 136 1030 2 5.313 2000.000 0.000 1.351
21 525.00 1200.00 123 949 2 5.313 2000.000 0.000 1.351
22 550.00 1200.00 151 832 2 5.313 2000.000 0.000 1.351
23 575.00 1200.00 117 594 3 5.313 2000.000 0.000 1.351
24 600.00 1200.00 130 530 5 5.313 2000.000 0.000 1.351
25 625.00 1200.00 136 569 4 5.313 2000.000 0.000 1.351
26 650.00 1200.00 256 605 9 5.313 2000.000 0.000 1.351
27 675.00 1200.00 430 658 8 5.313 2000.000 0.000 1.351
28 700.00 1200.00 548 663 3 5.313 2000.000 0.000 1.351
29 725.00 1200.00 605 627 7 5.313 2000.000 0.000 1.351
30 750.00 1200.00 557 585 2 5.313 2000.000 0.000 1.351
31 775.00 1200.00 486 546 5 5.313 2000.000 0.000 1.351
32 800.00 1200.00 526 618 5 5.313 2000.000 0.000 1.351
33 825.00 1200.00 518 768 5 5.313 2000.000 0.000 1.351
34 850.00 1200.00 582 1007 4 5.313 2000.000 0.000 1.351
35 875.00 1200.00 643 1080 3 5.313 2000.000 0.000 1.351
36 900.00 1200.00 588 1088 2 5.313 2000.000 0.000 1.351
37 925.00 1200.00 436 1040 2 5.313 2000.000 0.000 1.351
38 950.00 1200.00 241 1021 5 5.313 2000.000 0.000 1.351
39 975.00 1200.00 158 1014 7 5.313 2000.000 0.000 1.351
