# BinNR microsec tot-time (s)  O-Beam AUX Ampl(V) f(Hz) phase(deg) chi(pos)
0 0.00 1200.01 70 262 1.100 10000.000 0.000 0.835
1 3.00 1200.01 122 517 1.100 10000.000 0.000 0.835
2 6.00 1200.01 132 522 1.100 10000.000 0.000 0.835
3 9.00 1200.01 112 554 1.100 10000.000 0.000 0.835
4 12.00 1200.01 134 519 1.100 10000.000 0.000 0.835
5 15.00 1200.01 86 490 1.100 10000.000 0.000 0.835
6 18.00 1200.01 112 510 1.100 10000.000 0.000 0.835
7 21.00 1200.01 87 432 1.100 10000.000 0.000 0.835
8 24.00 1200.01 69 390 1.100 10000.000 0.000 0.835
9 27.00 1200.01 85 392 1.100 10000.000 0.000 0.835
10 30.00 1200.01 69 371 1.100 10000.000 0.000 0.835
11 33.00 1200.01 75 332 1.100 10000.000 0.000 0.835
12 36.00 1200.01 80 375 1.100 10000.000 0.000 0.835
13 39.00 1200.01 72 362 1.100 10000.000 0.000 0.835
14 42.00 1200.01 93 396 1.100 10000.000 0.000 0.835
15 45.00 1200.01 83 422 1.100 10000.000 0.000 0.835
16 48.00 1200.01 81 448 1.100 10000.000 0.000 0.835
17 51.00 1200.01 110 482 1.100 10000.000 0.000 0.835
18 54.00 1200.01 102 476 1.100 10000.000 0.000 0.835
19 57.00 1200.01 115 531 1.100 10000.000 0.000 0.835
20 60.00 1200.01 95 517 1.100 10000.000 0.000 0.835
21 63.00 1200.01 106 505 1.100 10000.000 0.000 0.835
22 66.00 1200.01 124 479 1.100 10000.000 0.000 0.835
23 69.00 1200.01 153 450 1.100 10000.000 0.000 0.835
24 72.00 1200.01 147 385 1.100 10000.000 0.000 0.835
25 75.00 1200.01 145 357 1.100 10000.000 0.000 0.835
26 78.00 1200.01 161 349 1.100 10000.000 0.000 0.835
27 81.00 1200.01 179 272 1.100 10000.000 0.000 0.835
28 84.00 1200.01 162 274 1.100 10000.000 0.000 0.835
29 87.00 1200.01 154 251 1.100 10000.000 0.000 0.835
30 90.00 1200.01 157 243 1.100 10000.000 0.000 0.835
31 93.00 1200.01 186 192 1.100 10000.000 0.000 0.835
32 96.00 1200.01 144 198 1.100 10000.000 0.000 0.835
33 99.00 1200.01 142 200 1.100 10000.000 0.000 0.835
34 102.00 1200.01 137 228 1.100 10000.000 0.000 0.835
35 105.00 1200.01 137 200 1.100 10000.000 0.000 0.835
36 108.00 1200.01 124 205 1.100 10000.000 0.000 0.835
37 111.00 1200.01 116 260 1.100 10000.000 0.000 0.835
38 114.00 1200.01 99 286 1.100 10000.000 0.000 0.835
39 117.00 1200.01 90 293 1.100 10000.000 0.000 0.835
40 120.00 1200.01 88 337 1.100 10000.000 0.000 0.835
41 123.00 1200.01 98 397 1.100 10000.000 0.000 0.835
42 126.00 1200.01 81 437 1.100 10000.000 0.000 0.835
43 129.00 1200.01 95 447 1.100 10000.000 0.000 0.835
44 132.00 1200.01 74 456 1.100 10000.000 0.000 0.835
45 135.00 1200.01 86 488 1.100 10000.000 0.000 0.835
46 138.00 1200.01 75 526 1.100 10000.000 0.000 0.835
47 141.00 1200.01 85 576 1.100 10000.000 0.000 0.835
48 144.00 1200.01 92 565 1.100 10000.000 0.000 0.835
49 147.00 1200.01 80 608 1.100 10000.000 0.000 0.835
50 150.00 1200.01 100 531 1.100 10000.000 0.000 0.835
51 153.00 1200.01 94 560 1.100 10000.000 0.000 0.835
52 156.00 1200.01 111 588 1.100 10000.000 0.000 0.835
53 159.00 1200.01 101 530 1.100 10000.000 0.000 0.835
54 162.00 1200.01 129 545 1.100 10000.000 0.000 0.835
55 165.00 1200.01 146 492 1.100 10000.000 0.000 0.835
56 168.00 1200.01 128 406 1.100 10000.000 0.000 0.835
57 171.00 1200.01 169 435 1.100 10000.000 0.000 0.835
58 174.00 1200.01 145 401 1.100 10000.000 0.000 0.835
59 177.00 1200.01 170 313 1.100 10000.000 0.000 0.835
60 180.00 1200.01 158 293 1.100 10000.000 0.000 0.835
61 183.00 1200.01 187 282 1.100 10000.000 0.000 0.835
62 186.00 1200.01 160 242 1.100 10000.000 0.000 0.835
63 189.00 1200.01 178 209 1.100 10000.000 0.000 0.835
64 192.00 1200.01 164 217 1.100 10000.000 0.000 0.835
65 195.00 1200.01 150 186 1.100 10000.000 0.000 0.835
66 198.00 1200.01 160 183 1.100 10000.000 0.000 0.835
67 201.00 1200.01 163 173 1.100 10000.000 0.000 0.835
68 204.00 1200.01 132 194 1.100 10000.000 0.000 0.835
69 207.00 1200.01 134 212 1.100 10000.000 0.000 0.835
70 210.00 1200.01 121 275 1.100 10000.000 0.000 0.835
71 213.00 1200.01 114 254 1.100 10000.000 0.000 0.835
72 216.00 1200.01 97 286 1.100 10000.000 0.000 0.835
73 219.00 1200.01 81 366 1.100 10000.000 0.000 0.835
74 222.00 1200.01 91 365 1.100 10000.000 0.000 0.835
75 225.00 1200.01 92 386 1.100 10000.000 0.000 0.835
76 228.00 1200.01 91 428 1.100 10000.000 0.000 0.835
77 231.00 1200.01 89 481 1.100 10000.000 0.000 0.835
78 234.00 1200.01 75 522 1.100 10000.000 0.000 0.835
79 237.00 1200.01 79 543 1.100 10000.000 0.000 0.835
80 240.00 1200.01 78 571 1.100 10000.000 0.000 0.835
81 243.00 1200.01 73 587 1.100 10000.000 0.000 0.835
82 246.00 1200.01 85 594 1.100 10000.000 0.000 0.835
83 249.00 1200.01 89 583 1.100 10000.000 0.000 0.835
84 252.00 1200.01 88 579 1.100 10000.000 0.000 0.835
85 255.00 1200.01 115 594 1.100 10000.000 0.000 0.835
86 258.00 1200.01 119 598 1.100 10000.000 0.000 0.835
87 261.00 1200.01 101 498 1.100 10000.000 0.000 0.835
88 264.00 1200.01 140 477 1.100 10000.000 0.000 0.835
89 267.00 1200.01 120 449 1.100 10000.000 0.000 0.835
90 270.00 1200.01 131 428 1.100 10000.000 0.000 0.835
91 273.00 1200.01 133 385 1.100 10000.000 0.000 0.835
92 276.00 1200.01 160 357 1.100 10000.000 0.000 0.835
93 279.00 1200.01 147 298 1.100 10000.000 0.000 0.835
94 282.00 1200.01 136 248 1.100 10000.000 0.000 0.835
95 285.00 1200.01 148 218 1.100 10000.000 0.000 0.835
96 288.00 1200.01 161 206 1.100 10000.000 0.000 0.835
97 291.00 1200.01 103 212 1.100 10000.000 0.000 0.835
98 294.00 1200.01 117 204 1.100 10000.000 0.000 0.835
99 297.00 1200.01 126 185 1.100 10000.000 0.000 0.835
100 300.00 1200.01 115 190 1.100 10000.000 0.000 0.835
101 303.00 1200.01 146 207 1.100 10000.000 0.000 0.835
102 306.00 1200.01 124 207 1.100 10000.000 0.000 0.835
103 309.00 1200.01 100 240 1.100 10000.000 0.000 0.835
104 312.00 1200.01 122 225 1.100 10000.000 0.000 0.835
105 315.00 1200.01 123 258 1.100 10000.000 0.000 0.835
106 318.00 1200.01 138 283 1.100 10000.000 0.000 0.835
107 321.00 1200.01 144 335 1.100 10000.000 0.000 0.835
108 324.00 1200.01 121 422 1.100 10000.000 0.000 0.835
109 327.00 1200.01 128 392 1.100 10000.000 0.000 0.835
110 330.00 1200.01 151 488 1.100 10000.000 0.000 0.835
111 333.00 1200.01 121 491 1.100 10000.000 0.000 0.835
112 336.00 1200.01 128 551 1.100 10000.000 0.000 0.835
113 339.00 1200.01 126 552 1.100 10000.000 0.000 0.835
114 342.00 1200.01 135 560 1.100 10000.000 0.000 0.835
115 345.00 1200.01 105 590 1.100 10000.000 0.000 0.835
116 348.00 1200.01 115 568 1.100 10000.000 0.000 0.835
117 351.00 1200.01 95 565 1.100 10000.000 0.000 0.835
118 354.00 1200.01 107 571 1.100 10000.000 0.000 0.835
119 357.00 1200.01 92 564 1.100 10000.000 0.000 0.835
120 360.00 1200.01 86 584 1.100 10000.000 0.000 0.835
121 363.00 1200.01 81 506 1.100 10000.000 0.000 0.835
122 366.00 1200.01 85 477 1.100 10000.000 0.000 0.835
123 369.00 1200.01 81 418 1.100 10000.000 0.000 0.835
124 372.00 1200.01 79 413 1.100 10000.000 0.000 0.835
125 375.00 1200.01 63 345 1.100 10000.000 0.000 0.835
126 378.00 1200.01 93 343 1.100 10000.000 0.000 0.835
127 381.00 1200.01 94 291 1.100 10000.000 0.000 0.835
128 384.00 1200.01 96 243 1.100 10000.000 0.000 0.835
129 387.00 1200.01 89 222 1.100 10000.000 0.000 0.835
130 390.00 1200.01 104 197 1.100 10000.000 0.000 0.835
131 393.00 1200.01 113 214 1.100 10000.000 0.000 0.835
132 396.00 1200.01 105 204 1.100 10000.000 0.000 0.835
133 399.00 1200.01 139 201 1.100 10000.000 0.000 0.835
134 402.00 1200.01 152 218 1.100 10000.000 0.000 0.835
135 405.00 1200.01 155 232 1.100 10000.000 0.000 0.835
136 408.00 1200.01 148 219 1.100 10000.000 0.000 0.835
137 411.00 1200.01 160 260 1.100 10000.000 0.000 0.835
138 414.00 1200.01 162 259 1.100 10000.000 0.000 0.835
139 417.00 1200.01 163 293 1.100 10000.000 0.000 0.835
140 420.00 1200.01 155 333 1.100 10000.000 0.000 0.835
141 423.00 1200.01 175 391 1.100 10000.000 0.000 0.835
142 426.00 1200.01 137 392 1.100 10000.000 0.000 0.835
143 429.00 1200.01 141 478 1.100 10000.000 0.000 0.835
144 432.00 1200.01 136 486 1.100 10000.000 0.000 0.835
