# BinNR microsec tot-time (s)  O-Beam AUX Ampl(V) f(Hz) phase(deg) chi(pos)
0 0.00 1200.01 154 481 1.100 10000.000 0.000 1.329
1 3.00 1200.01 295 929 1.100 10000.000 0.000 1.329
2 6.00 1200.01 301 999 1.100 10000.000 0.000 1.329
3 9.00 1200.01 324 932 1.100 10000.000 0.000 1.329
4 12.00 1200.01 313 1031 1.100 10000.000 0.000 1.329
5 15.00 1200.01 288 1009 1.100 10000.000 0.000 1.329
6 18.00 1200.01 265 945 1.100 10000.000 0.000 1.329
7 21.00 1200.01 289 916 1.100 10000.000 0.000 1.329
8 24.00 1200.01 290 941 1.100 10000.000 0.000 1.329
9 27.00 1200.01 249 923 1.100 10000.000 0.000 1.329
10 30.00 1200.01 257 884 1.100 10000.000 0.000 1.329
11 33.00 1200.01 262 944 1.100 10000.000 0.000 1.329
12 36.00 1200.01 263 873 1.100 10000.000 0.000 1.329
13 39.00 1200.01 246 902 1.100 10000.000 0.000 1.329
14 42.00 1200.01 256 957 1.100 10000.000 0.000 1.329
15 45.00 1200.01 250 936 1.100 10000.000 0.000 1.329
16 48.00 1200.01 267 1003 1.100 10000.000 0.000 1.329
17 51.00 1200.01 265 934 1.100 10000.000 0.000 1.329
18 54.00 1200.01 280 1000 1.100 10000.000 0.000 1.329
19 57.00 1200.01 289 947 1.100 10000.000 0.000 1.329
20 60.00 1200.01 274 960 1.100 10000.000 0.000 1.329
21 63.00 1200.01 304 947 1.100 10000.000 0.000 1.329
22 66.00 1200.01 319 924 1.100 10000.000 0.000 1.329
23 69.00 1200.01 329 904 1.100 10000.000 0.000 1.329
24 72.00 1200.01 345 984 1.100 10000.000 0.000 1.329
25 75.00 1200.01 289 910 1.100 10000.000 0.000 1.329
26 78.00 1200.01 350 915 1.100 10000.000 0.000 1.329
27 81.00 1200.01 305 828 1.100 10000.000 0.000 1.329
28 84.00 1200.01 349 893 1.100 10000.000 0.000 1.329
29 87.00 1200.01 320 812 1.100 10000.000 0.000 1.329
30 90.00 1200.01 331 828 1.100 10000.000 0.000 1.329
31 93.00 1200.01 363 769 1.100 10000.000 0.000 1.329
32 96.00 1200.01 308 839 1.100 10000.000 0.000 1.329
33 99.00 1200.01 316 817 1.100 10000.000 0.000 1.329
34 102.00 1200.01 341 838 1.100 10000.000 0.000 1.329
35 105.00 1200.01 317 854 1.100 10000.000 0.000 1.329
36 108.00 1200.01 307 830 1.100 10000.000 0.000 1.329
37 111.00 1200.01 305 823 1.100 10000.000 0.000 1.329
38 114.00 1200.01 291 847 1.100 10000.000 0.000 1.329
39 117.00 1200.01 300 858 1.100 10000.000 0.000 1.329
40 120.00 1200.01 277 937 1.100 10000.000 0.000 1.329
41 123.00 1200.01 244 934 1.100 10000.000 0.000 1.329
42 126.00 1200.01 247 919 1.100 10000.000 0.000 1.329
43 129.00 1200.01 258 991 1.100 10000.000 0.000 1.329
44 132.00 1200.01 271 976 1.100 10000.000 0.000 1.329
45 135.00 1200.01 250 994 1.100 10000.000 0.000 1.329
46 138.00 1200.01 240 948 1.100 10000.000 0.000 1.329
47 141.00 1200.01 255 972 1.100 10000.000 0.000 1.329
48 144.00 1200.01 256 886 1.100 10000.000 0.000 1.329
49 147.00 1200.01 249 878 1.100 10000.000 0.000 1.329
50 150.00 1200.01 286 953 1.100 10000.000 0.000 1.329
51 153.00 1200.01 274 896 1.100 10000.000 0.000 1.329
52 156.00 1200.01 291 972 1.100 10000.000 0.000 1.329
53 159.00 1200.01 298 939 1.100 10000.000 0.000 1.329
54 162.00 1200.01 332 944 1.100 10000.000 0.000 1.329
55 165.00 1200.01 320 943 1.100 10000.000 0.000 1.329
56 168.00 1200.01 337 959 1.100 10000.000 0.000 1.329
57 171.00 1200.01 342 996 1.100 10000.000 0.000 1.329
58 174.00 1200.01 332 895 1.100 10000.000 0.000 1.329
59 177.00 1200.01 306 911 1.100 10000.000 0.000 1.329
60 180.00 1200.01 339 965 1.100 10000.000 0.000 1.329
61 183.00 1200.01 338 841 1.100 10000.000 0.000 1.329
62 186.00 1200.01 348 820 1.100 10000.000 0.000 1.329
63 189.00 1200.01 328 821 1.100 10000.000 0.000 1.329
64 192.00 1200.01 342 731 1.100 10000.000 0.000 1.329
65 195.00 1200.01 331 790 1.100 10000.000 0.000 1.329
66 198.00 1200.01 340 786 1.100 10000.000 0.000 1.329
67 201.00 1200.01 336 793 1.100 10000.000 0.000 1.329
68 204.00 1200.01 304 851 1.100 10000.000 0.000 1.329
69 207.00 1200.01 332 789 1.100 10000.000 0.000 1.329
70 210.00 1200.01 288 840 1.100 10000.000 0.000 1.329
71 213.00 1200.01 275 927 1.100 10000.000 0.000 1.329
72 216.00 1200.01 308 861 1.100 10000.000 0.000 1.329
73 219.00 1200.01 295 878 1.100 10000.000 0.000 1.329
74 222.00 1200.01 264 922 1.100 10000.000 0.000 1.329
75 225.00 1200.01 242 893 1.100 10000.000 0.000 1.329
76 228.00 1200.01 249 939 1.100 10000.000 0.000 1.329
77 231.00 1200.01 250 938 1.100 10000.000 0.000 1.329
78 234.00 1200.01 268 938 1.100 10000.000 0.000 1.329
79 237.00 1200.01 231 1020 1.100 10000.000 0.000 1.329
80 240.00 1200.01 266 1034 1.100 10000.000 0.000 1.329
81 243.00 1200.01 238 968 1.100 10000.000 0.000 1.329
82 246.00 1200.01 254 1038 1.100 10000.000 0.000 1.329
83 249.00 1200.01 241 1002 1.100 10000.000 0.000 1.329
84 252.00 1200.01 300 994 1.100 10000.000 0.000 1.329
85 255.00 1200.01 269 915 1.100 10000.000 0.000 1.329
86 258.00 1200.01 265 936 1.100 10000.000 0.000 1.329
87 261.00 1200.01 314 980 1.100 10000.000 0.000 1.329
88 264.00 1200.01 287 925 1.100 10000.000 0.000 1.329
89 267.00 1200.01 335 1054 1.100 10000.000 0.000 1.329
90 270.00 1200.01 330 975 1.100 10000.000 0.000 1.329
91 273.00 1200.01 317 903 1.100 10000.000 0.000 1.329
92 276.00 1200.01 339 933 1.100 10000.000 0.000 1.329
93 279.00 1200.01 302 896 1.100 10000.000 0.000 1.329
94 282.00 1200.01 338 893 1.100 10000.000 0.000 1.329
95 285.00 1200.01 298 832 1.100 10000.000 0.000 1.329
96 288.00 1200.01 306 884 1.100 10000.000 0.000 1.329
97 291.00 1200.01 303 816 1.100 10000.000 0.000 1.329
98 294.00 1200.01 312 826 1.100 10000.000 0.000 1.329
99 297.00 1200.01 300 752 1.100 10000.000 0.000 1.329
100 300.00 1200.01 325 821 1.100 10000.000 0.000 1.329
101 303.00 1200.01 336 806 1.100 10000.000 0.000 1.329
102 306.00 1200.01 330 813 1.100 10000.000 0.000 1.329
103 309.00 1200.01 315 823 1.100 10000.000 0.000 1.329
104 312.00 1200.01 318 847 1.100 10000.000 0.000 1.329
105 315.00 1200.01 300 824 1.100 10000.000 0.000 1.329
106 318.00 1200.01 350 891 1.100 10000.000 0.000 1.329
107 321.00 1200.01 282 922 1.100 10000.000 0.000 1.329
108 324.00 1200.01 322 956 1.100 10000.000 0.000 1.329
109 327.00 1200.01 327 933 1.100 10000.000 0.000 1.329
110 330.00 1200.01 338 929 1.100 10000.000 0.000 1.329
111 333.00 1200.01 295 1014 1.100 10000.000 0.000 1.329
112 336.00 1200.01 339 997 1.100 10000.000 0.000 1.329
113 339.00 1200.01 289 939 1.100 10000.000 0.000 1.329
114 342.00 1200.01 319 1015 1.100 10000.000 0.000 1.329
115 345.00 1200.01 303 899 1.100 10000.000 0.000 1.329
116 348.00 1200.01 285 1014 1.100 10000.000 0.000 1.329
117 351.00 1200.01 311 934 1.100 10000.000 0.000 1.329
118 354.00 1200.01 285 948 1.100 10000.000 0.000 1.329
119 357.00 1200.01 242 974 1.100 10000.000 0.000 1.329
120 360.00 1200.01 293 995 1.100 10000.000 0.000 1.329
121 363.00 1200.01 244 990 1.100 10000.000 0.000 1.329
122 366.00 1200.01 241 959 1.100 10000.000 0.000 1.329
123 369.00 1200.01 249 947 1.100 10000.000 0.000 1.329
124 372.00 1200.01 268 917 1.100 10000.000 0.000 1.329
125 375.00 1200.01 275 908 1.100 10000.000 0.000 1.329
126 378.00 1200.01 285 866 1.100 10000.000 0.000 1.329
127 381.00 1200.01 265 875 1.100 10000.000 0.000 1.329
128 384.00 1200.01 274 872 1.100 10000.000 0.000 1.329
129 387.00 1200.01 271 858 1.100 10000.000 0.000 1.329
130 390.00 1200.01 272 886 1.100 10000.000 0.000 1.329
131 393.00 1200.01 295 784 1.100 10000.000 0.000 1.329
132 396.00 1200.01 349 746 1.100 10000.000 0.000 1.329
133 399.00 1200.01 317 817 1.100 10000.000 0.000 1.329
134 402.00 1200.01 338 755 1.100 10000.000 0.000 1.329
135 405.00 1200.01 338 831 1.100 10000.000 0.000 1.329
136 408.00 1200.01 320 882 1.100 10000.000 0.000 1.329
137 411.00 1200.01 326 838 1.100 10000.000 0.000 1.329
138 414.00 1200.01 332 879 1.100 10000.000 0.000 1.329
139 417.00 1200.01 297 866 1.100 10000.000 0.000 1.329
140 420.00 1200.01 355 890 1.100 10000.000 0.000 1.329
141 423.00 1200.01 329 897 1.100 10000.000 0.000 1.329
142 426.00 1200.01 371 948 1.100 10000.000 0.000 1.329
143 429.00 1200.01 330 921 1.100 10000.000 0.000 1.329
144 432.00 1200.01 315 951 1.100 10000.000 0.000 1.329
