# BinNR microsec tot-time (s)  O-Beam AUX Ampl(V) f(Hz) phase(deg) chi(pos)
0 0.00 1200.01 69 66 1.100 10000.000 0.000 0.154
1 3.00 1200.01 152 111 1.100 10000.000 0.000 0.154
2 6.00 1200.01 144 134 1.100 10000.000 0.000 0.154
3 9.00 1200.01 155 131 1.100 10000.000 0.000 0.154
4 12.00 1200.01 167 141 1.100 10000.000 0.000 0.154
5 15.00 1200.01 154 170 1.100 10000.000 0.000 0.154
6 18.00 1200.01 172 174 1.100 10000.000 0.000 0.154
7 21.00 1200.01 185 165 1.100 10000.000 0.000 0.154
8 24.00 1200.01 207 217 1.100 10000.000 0.000 0.154
9 27.00 1200.01 203 229 1.100 10000.000 0.000 0.154
10 30.00 1200.01 192 214 1.100 10000.000 0.000 0.154
11 33.00 1200.01 174 220 1.100 10000.000 0.000 0.154
12 36.00 1200.01 204 231 1.100 10000.000 0.000 0.154
13 39.00 1200.01 192 184 1.100 10000.000 0.000 0.154
14 42.00 1200.01 201 198 1.100 10000.000 0.000 0.154
15 45.00 1200.01 193 201 1.100 10000.000 0.000 0.154
16 48.00 1200.01 198 172 1.100 10000.000 0.000 0.154
17 51.00 1200.01 184 142 1.100 10000.000 0.000 0.154
18 54.00 1200.01 174 128 1.100 10000.000 0.000 0.154
19 57.00 1200.01 160 131 1.100 10000.000 0.000 0.154
20 60.00 1200.01 142 129 1.100 10000.000 0.000 0.154
21 63.00 1200.01 132 140 1.100 10000.000 0.000 0.154
22 66.00 1200.01 95 151 1.100 10000.000 0.000 0.154
23 69.00 1200.01 119 179 1.100 10000.000 0.000 0.154
24 72.00 1200.01 106 214 1.100 10000.000 0.000 0.154
25 75.00 1200.01 109 222 1.100 10000.000 0.000 0.154
26 78.00 1200.01 114 274 1.100 10000.000 0.000 0.154
27 81.00 1200.01 98 299 1.100 10000.000 0.000 0.154
28 84.00 1200.01 94 364 1.100 10000.000 0.000 0.154
29 87.00 1200.01 102 341 1.100 10000.000 0.000 0.154
30 90.00 1200.01 94 365 1.100 10000.000 0.000 0.154
31 93.00 1200.01 116 390 1.100 10000.000 0.000 0.154
32 96.00 1200.01 107 410 1.100 10000.000 0.000 0.154
33 99.00 1200.01 123 428 1.100 10000.000 0.000 0.154
34 102.00 1200.01 110 413 1.100 10000.000 0.000 0.154
35 105.00 1200.01 120 404 1.100 10000.000 0.000 0.154
36 108.00 1200.01 153 371 1.100 10000.000 0.000 0.154
37 111.00 1200.01 145 336 1.100 10000.000 0.000 0.154
38 114.00 1200.01 151 334 1.100 10000.000 0.000 0.154
39 117.00 1200.01 179 293 1.100 10000.000 0.000 0.154
40 120.00 1200.01 179 269 1.100 10000.000 0.000 0.154
41 123.00 1200.01 189 242 1.100 10000.000 0.000 0.154
42 126.00 1200.01 210 171 1.100 10000.000 0.000 0.154
43 129.00 1200.01 225 164 1.100 10000.000 0.000 0.154
44 132.00 1200.01 198 134 1.100 10000.000 0.000 0.154
45 135.00 1200.01 184 141 1.100 10000.000 0.000 0.154
46 138.00 1200.01 206 135 1.100 10000.000 0.000 0.154
47 141.00 1200.01 187 132 1.100 10000.000 0.000 0.154
48 144.00 1200.01 239 126 1.100 10000.000 0.000 0.154
49 147.00 1200.01 206 101 1.100 10000.000 0.000 0.154
50 150.00 1200.01 177 121 1.100 10000.000 0.000 0.154
51 153.00 1200.01 186 119 1.100 10000.000 0.000 0.154
52 156.00 1200.01 158 133 1.100 10000.000 0.000 0.154
53 159.00 1200.01 148 104 1.100 10000.000 0.000 0.154
54 162.00 1200.01 148 149 1.100 10000.000 0.000 0.154
55 165.00 1200.01 140 159 1.100 10000.000 0.000 0.154
56 168.00 1200.01 124 163 1.100 10000.000 0.000 0.154
57 171.00 1200.01 108 197 1.100 10000.000 0.000 0.154
58 174.00 1200.01 111 266 1.100 10000.000 0.000 0.154
59 177.00 1200.01 117 267 1.100 10000.000 0.000 0.154
60 180.00 1200.01 94 298 1.100 10000.000 0.000 0.154
61 183.00 1200.01 116 378 1.100 10000.000 0.000 0.154
62 186.00 1200.01 91 344 1.100 10000.000 0.000 0.154
63 189.00 1200.01 102 384 1.100 10000.000 0.000 0.154
64 192.00 1200.01 87 413 1.100 10000.000 0.000 0.154
65 195.00 1200.01 105 425 1.100 10000.000 0.000 0.154
66 198.00 1200.01 119 424 1.100 10000.000 0.000 0.154
67 201.00 1200.01 129 403 1.100 10000.000 0.000 0.154
68 204.00 1200.01 141 386 1.100 10000.000 0.000 0.154
69 207.00 1200.01 138 379 1.100 10000.000 0.000 0.154
70 210.00 1200.01 138 366 1.100 10000.000 0.000 0.154
71 213.00 1200.01 149 321 1.100 10000.000 0.000 0.154
72 216.00 1200.01 161 298 1.100 10000.000 0.000 0.154
73 219.00 1200.01 179 281 1.100 10000.000 0.000 0.154
74 222.00 1200.01 164 258 1.100 10000.000 0.000 0.154
75 225.00 1200.01 192 197 1.100 10000.000 0.000 0.154
76 228.00 1200.01 210 147 1.100 10000.000 0.000 0.154
77 231.00 1200.01 194 125 1.100 10000.000 0.000 0.154
78 234.00 1200.01 208 133 1.100 10000.000 0.000 0.154
79 237.00 1200.01 208 128 1.100 10000.000 0.000 0.154
80 240.00 1200.01 207 120 1.100 10000.000 0.000 0.154
81 243.00 1200.01 169 104 1.100 10000.000 0.000 0.154
82 246.00 1200.01 177 98 1.100 10000.000 0.000 0.154
83 249.00 1200.01 191 98 1.100 10000.000 0.000 0.154
84 252.00 1200.01 174 95 1.100 10000.000 0.000 0.154
85 255.00 1200.01 186 116 1.100 10000.000 0.000 0.154
86 258.00 1200.01 194 137 1.100 10000.000 0.000 0.154
87 261.00 1200.01 168 147 1.100 10000.000 0.000 0.154
88 264.00 1200.01 146 134 1.100 10000.000 0.000 0.154
89 267.00 1200.01 136 154 1.100 10000.000 0.000 0.154
90 270.00 1200.01 121 202 1.100 10000.000 0.000 0.154
91 273.00 1200.01 126 187 1.100 10000.000 0.000 0.154
92 276.00 1200.01 127 245 1.100 10000.000 0.000 0.154
93 279.00 1200.01 126 293 1.100 10000.000 0.000 0.154
94 282.00 1200.01 100 313 1.100 10000.000 0.000 0.154
95 285.00 1200.01 98 328 1.100 10000.000 0.000 0.154
96 288.00 1200.01 128 394 1.100 10000.000 0.000 0.154
97 291.00 1200.01 114 354 1.100 10000.000 0.000 0.154
98 294.00 1200.01 110 398 1.100 10000.000 0.000 0.154
99 297.00 1200.01 131 420 1.100 10000.000 0.000 0.154
100 300.00 1200.01 117 397 1.100 10000.000 0.000 0.154
101 303.00 1200.01 150 379 1.100 10000.000 0.000 0.154
102 306.00 1200.01 146 375 1.100 10000.000 0.000 0.154
103 309.00 1200.01 131 328 1.100 10000.000 0.000 0.154
104 312.00 1200.01 145 318 1.100 10000.000 0.000 0.154
105 315.00 1200.01 136 315 1.100 10000.000 0.000 0.154
106 318.00 1200.01 119 265 1.100 10000.000 0.000 0.154
107 321.00 1200.01 124 233 1.100 10000.000 0.000 0.154
108 324.00 1200.01 118 196 1.100 10000.000 0.000 0.154
109 327.00 1200.01 117 191 1.100 10000.000 0.000 0.154
110 330.00 1200.01 127 173 1.100 10000.000 0.000 0.154
111 333.00 1200.01 128 113 1.100 10000.000 0.000 0.154
112 336.00 1200.01 135 92 1.100 10000.000 0.000 0.154
113 339.00 1200.01 132 120 1.100 10000.000 0.000 0.154
114 342.00 1200.01 128 120 1.100 10000.000 0.000 0.154
115 345.00 1200.01 141 86 1.100 10000.000 0.000 0.154
116 348.00 1200.01 168 98 1.100 10000.000 0.000 0.154
117 351.00 1200.01 153 107 1.100 10000.000 0.000 0.154
118 354.00 1200.01 160 104 1.100 10000.000 0.000 0.154
119 357.00 1200.01 197 110 1.100 10000.000 0.000 0.154
120 360.00 1200.01 190 132 1.100 10000.000 0.000 0.154
121 363.00 1200.01 194 140 1.100 10000.000 0.000 0.154
122 366.00 1200.01 218 167 1.100 10000.000 0.000 0.154
123 369.00 1200.01 227 172 1.100 10000.000 0.000 0.154
124 372.00 1200.01 195 227 1.100 10000.000 0.000 0.154
125 375.00 1200.01 192 228 1.100 10000.000 0.000 0.154
126 378.00 1200.01 208 314 1.100 10000.000 0.000 0.154
127 381.00 1200.01 197 303 1.100 10000.000 0.000 0.154
128 384.00 1200.01 192 333 1.100 10000.000 0.000 0.154
129 387.00 1200.01 192 339 1.100 10000.000 0.000 0.154
130 390.00 1200.01 158 365 1.100 10000.000 0.000 0.154
131 393.00 1200.01 155 380 1.100 10000.000 0.000 0.154
132 396.00 1200.01 137 405 1.100 10000.000 0.000 0.154
133 399.00 1200.01 122 405 1.100 10000.000 0.000 0.154
134 402.00 1200.01 136 374 1.100 10000.000 0.000 0.154
135 405.00 1200.01 116 386 1.100 10000.000 0.000 0.154
136 408.00 1200.01 108 406 1.100 10000.000 0.000 0.154
137 411.00 1200.01 102 349 1.100 10000.000 0.000 0.154
138 414.00 1200.01 112 366 1.100 10000.000 0.000 0.154
139 417.00 1200.01 89 278 1.100 10000.000 0.000 0.154
140 420.00 1200.01 95 241 1.100 10000.000 0.000 0.154
141 423.00 1200.01 109 236 1.100 10000.000 0.000 0.154
142 426.00 1200.01 97 221 1.100 10000.000 0.000 0.154
143 429.00 1200.01 104 178 1.100 10000.000 0.000 0.154
144 432.00 1200.01 116 138 1.100 10000.000 0.000 0.154
