# BinNR microsec tot-time (s)  O-Beam AUX Ampl(V) f(Hz) phase(deg) chi(pos)
0 0.00 1200.00 173 493 1.100 10000.000 0.000 1.505
1 3.00 1200.00 348 847 1.100 10000.000 0.000 1.505
2 6.00 1200.00 368 892 1.100 10000.000 0.000 1.505
3 9.00 1200.00 318 920 1.100 10000.000 0.000 1.505
4 12.00 1200.00 335 964 1.100 10000.000 0.000 1.505
5 15.00 1200.00 330 894 1.100 10000.000 0.000 1.505
6 18.00 1200.00 343 923 1.100 10000.000 0.000 1.505
7 21.00 1200.00 318 962 1.100 10000.000 0.000 1.505
8 24.00 1200.00 340 991 1.100 10000.000 0.000 1.505
9 27.00 1200.00 305 916 1.100 10000.000 0.000 1.505
10 30.00 1200.00 291 969 1.100 10000.000 0.000 1.505
11 33.00 1200.00 312 981 1.100 10000.000 0.000 1.505
12 36.00 1200.00 353 1010 1.100 10000.000 0.000 1.505
13 39.00 1200.00 361 916 1.100 10000.000 0.000 1.505
14 42.00 1200.00 318 1021 1.100 10000.000 0.000 1.505
15 45.00 1200.00 324 973 1.100 10000.000 0.000 1.505
16 48.00 1200.00 308 976 1.100 10000.000 0.000 1.505
17 51.00 1200.00 354 967 1.100 10000.000 0.000 1.505
18 54.00 1200.00 351 943 1.100 10000.000 0.000 1.505
19 57.00 1200.00 319 930 1.100 10000.000 0.000 1.505
20 60.00 1200.00 318 940 1.100 10000.000 0.000 1.505
21 63.00 1200.00 307 899 1.100 10000.000 0.000 1.505
22 66.00 1200.00 348 934 1.100 10000.000 0.000 1.505
23 69.00 1200.00 330 954 1.100 10000.000 0.000 1.505
24 72.00 1200.00 367 938 1.100 10000.000 0.000 1.505
25 75.00 1200.00 377 969 1.100 10000.000 0.000 1.505
26 78.00 1200.00 305 990 1.100 10000.000 0.000 1.505
27 81.00 1200.00 339 854 1.100 10000.000 0.000 1.505
28 84.00 1200.00 352 996 1.100 10000.000 0.000 1.505
29 87.00 1200.00 353 933 1.100 10000.000 0.000 1.505
30 90.00 1200.00 352 945 1.100 10000.000 0.000 1.505
31 93.00 1200.00 307 934 1.100 10000.000 0.000 1.505
32 96.00 1200.00 337 938 1.100 10000.000 0.000 1.505
33 99.00 1200.00 335 907 1.100 10000.000 0.000 1.505
34 102.00 1200.00 342 928 1.100 10000.000 0.000 1.505
35 105.00 1200.00 352 979 1.100 10000.000 0.000 1.505
36 108.00 1200.00 346 929 1.100 10000.000 0.000 1.505
37 111.00 1200.00 346 964 1.100 10000.000 0.000 1.505
38 114.00 1200.00 355 1052 1.100 10000.000 0.000 1.505
39 117.00 1200.00 313 975 1.100 10000.000 0.000 1.505
40 120.00 1200.00 313 1009 1.100 10000.000 0.000 1.505
41 123.00 1200.00 327 986 1.100 10000.000 0.000 1.505
42 126.00 1200.00 322 991 1.100 10000.000 0.000 1.505
43 129.00 1200.00 309 984 1.100 10000.000 0.000 1.505
44 132.00 1200.00 313 975 1.100 10000.000 0.000 1.505
45 135.00 1200.00 302 966 1.100 10000.000 0.000 1.505
46 138.00 1200.00 302 857 1.100 10000.000 0.000 1.505
47 141.00 1200.00 325 893 1.100 10000.000 0.000 1.505
48 144.00 1200.00 335 895 1.100 10000.000 0.000 1.505
49 147.00 1200.00 343 850 1.100 10000.000 0.000 1.505
50 150.00 1200.00 315 914 1.100 10000.000 0.000 1.505
51 153.00 1200.00 343 898 1.100 10000.000 0.000 1.505
52 156.00 1200.00 327 907 1.100 10000.000 0.000 1.505
53 159.00 1200.00 334 918 1.100 10000.000 0.000 1.505
54 162.00 1200.00 344 977 1.100 10000.000 0.000 1.505
55 165.00 1200.00 318 905 1.100 10000.000 0.000 1.505
56 168.00 1200.00 340 940 1.100 10000.000 0.000 1.505
57 171.00 1200.00 339 964 1.100 10000.000 0.000 1.505
58 174.00 1200.00 337 945 1.100 10000.000 0.000 1.505
59 177.00 1200.00 330 977 1.100 10000.000 0.000 1.505
60 180.00 1200.00 314 958 1.100 10000.000 0.000 1.505
61 183.00 1200.00 333 951 1.100 10000.000 0.000 1.505
62 186.00 1200.00 326 948 1.100 10000.000 0.000 1.505
63 189.00 1200.00 333 977 1.100 10000.000 0.000 1.505
64 192.00 1200.00 328 954 1.100 10000.000 0.000 1.505
65 195.00 1200.00 312 949 1.100 10000.000 0.000 1.505
66 198.00 1200.00 371 937 1.100 10000.000 0.000 1.505
67 201.00 1200.00 383 912 1.100 10000.000 0.000 1.505
68 204.00 1200.00 333 919 1.100 10000.000 0.000 1.505
69 207.00 1200.00 321 963 1.100 10000.000 0.000 1.505
70 210.00 1200.00 350 964 1.100 10000.000 0.000 1.505
71 213.00 1200.00 298 989 1.100 10000.000 0.000 1.505
72 216.00 1200.00 361 980 1.100 10000.000 0.000 1.505
73 219.00 1200.00 338 986 1.100 10000.000 0.000 1.505
74 222.00 1200.00 326 951 1.100 10000.000 0.000 1.505
75 225.00 1200.00 329 974 1.100 10000.000 0.000 1.505
76 228.00 1200.00 342 982 1.100 10000.000 0.000 1.505
77 231.00 1200.00 305 934 1.100 10000.000 0.000 1.505
78 234.00 1200.00 307 975 1.100 10000.000 0.000 1.505
79 237.00 1200.00 325 910 1.100 10000.000 0.000 1.505
80 240.00 1200.00 307 912 1.100 10000.000 0.000 1.505
81 243.00 1200.00 305 878 1.100 10000.000 0.000 1.505
82 246.00 1200.00 318 906 1.100 10000.000 0.000 1.505
83 249.00 1200.00 319 892 1.100 10000.000 0.000 1.505
84 252.00 1200.00 319 894 1.100 10000.000 0.000 1.505
85 255.00 1200.00 318 868 1.100 10000.000 0.000 1.505
86 258.00 1200.00 307 882 1.100 10000.000 0.000 1.505
87 261.00 1200.00 328 923 1.100 10000.000 0.000 1.505
88 264.00 1200.00 357 977 1.100 10000.000 0.000 1.505
89 267.00 1200.00 362 954 1.100 10000.000 0.000 1.505
90 270.00 1200.00 287 974 1.100 10000.000 0.000 1.505
91 273.00 1200.00 349 988 1.100 10000.000 0.000 1.505
92 276.00 1200.00 347 1009 1.100 10000.000 0.000 1.505
93 279.00 1200.00 287 936 1.100 10000.000 0.000 1.505
94 282.00 1200.00 378 1001 1.100 10000.000 0.000 1.505
95 285.00 1200.00 339 1018 1.100 10000.000 0.000 1.505
96 288.00 1200.00 327 992 1.100 10000.000 0.000 1.505
97 291.00 1200.00 337 924 1.100 10000.000 0.000 1.505
98 294.00 1200.00 322 914 1.100 10000.000 0.000 1.505
99 297.00 1200.00 349 929 1.100 10000.000 0.000 1.505
100 300.00 1200.00 317 935 1.100 10000.000 0.000 1.505
101 303.00 1200.00 340 875 1.100 10000.000 0.000 1.505
102 306.00 1200.00 337 944 1.100 10000.000 0.000 1.505
103 309.00 1200.00 317 950 1.100 10000.000 0.000 1.505
104 312.00 1200.00 354 983 1.100 10000.000 0.000 1.505
105 315.00 1200.00 386 996 1.100 10000.000 0.000 1.505
106 318.00 1200.00 344 1022 1.100 10000.000 0.000 1.505
107 321.00 1200.00 326 997 1.100 10000.000 0.000 1.505
108 324.00 1200.00 335 1034 1.100 10000.000 0.000 1.505
109 327.00 1200.00 341 992 1.100 10000.000 0.000 1.505
110 330.00 1200.00 373 910 1.100 10000.000 0.000 1.505
111 333.00 1200.00 345 911 1.100 10000.000 0.000 1.505
112 336.00 1200.00 370 929 1.100 10000.000 0.000 1.505
113 339.00 1200.00 358 915 1.100 10000.000 0.000 1.505
114 342.00 1200.00 333 932 1.100 10000.000 0.000 1.505
115 345.00 1200.00 343 849 1.100 10000.000 0.000 1.505
116 348.00 1200.00 370 899 1.100 10000.000 0.000 1.505
117 351.00 1200.00 347 892 1.100 10000.000 0.000 1.505
118 354.00 1200.00 350 966 1.100 10000.000 0.000 1.505
119 357.00 1200.00 308 986 1.100 10000.000 0.000 1.505
120 360.00 1200.00 312 953 1.100 10000.000 0.000 1.505
121 363.00 1200.00 331 916 1.100 10000.000 0.000 1.505
122 366.00 1200.00 288 985 1.100 10000.000 0.000 1.505
123 369.00 1200.00 293 946 1.100 10000.000 0.000 1.505
124 372.00 1200.00 287 972 1.100 10000.000 0.000 1.505
125 375.00 1200.00 326 1022 1.100 10000.000 0.000 1.505
126 378.00 1200.00 344 915 1.100 10000.000 0.000 1.505
127 381.00 1200.00 287 953 1.100 10000.000 0.000 1.505
128 384.00 1200.00 317 1029 1.100 10000.000 0.000 1.505
129 387.00 1200.00 326 907 1.100 10000.000 0.000 1.505
130 390.00 1200.00 328 931 1.100 10000.000 0.000 1.505
131 393.00 1200.00 328 899 1.100 10000.000 0.000 1.505
132 396.00 1200.00 350 931 1.100 10000.000 0.000 1.505
133 399.00 1200.00 357 957 1.100 10000.000 0.000 1.505
134 402.00 1200.00 337 902 1.100 10000.000 0.000 1.505
135 405.00 1200.00 340 991 1.100 10000.000 0.000 1.505
136 408.00 1200.00 329 989 1.100 10000.000 0.000 1.505
137 411.00 1200.00 324 998 1.100 10000.000 0.000 1.505
138 414.00 1200.00 332 975 1.100 10000.000 0.000 1.505
139 417.00 1200.00 350 989 1.100 10000.000 0.000 1.505
140 420.00 1200.00 318 984 1.100 10000.000 0.000 1.505
141 423.00 1200.00 312 970 1.100 10000.000 0.000 1.505
142 426.00 1200.00 384 1000 1.100 10000.000 0.000 1.505
143 429.00 1200.00 351 968 1.100 10000.000 0.000 1.505
144 432.00 1200.00 344 975 1.100 10000.000 0.000 1.505
