# BinNR microsec tot-time (s)  O-Beam AUX Ampl_1(V) f_1(Hz) phase_1(deg) Ampl_2(V) f_2(Hz) phase_2(deg) chi(pos)
0 0.00 1200.02 178 549 3.100 10000.000 0.000 4.000 15000.000 0.000 0.824
1 3.00 1200.02 318 1010 3.100 10000.000 0.000 4.000 15000.000 0.000 0.824
2 6.00 1200.02 299 1092 3.100 10000.000 0.000 4.000 15000.000 0.000 0.824
3 9.00 1200.02 354 970 3.100 10000.000 0.000 4.000 15000.000 0.000 0.824
4 12.00 1200.02 336 994 3.100 10000.000 0.000 4.000 15000.000 0.000 0.824
5 15.00 1200.02 328 1029 3.100 10000.000 0.000 4.000 15000.000 0.000 0.824
6 18.00 1200.02 371 1060 3.100 10000.000 0.000 4.000 15000.000 0.000 0.824
7 21.00 1200.02 340 1008 3.100 10000.000 0.000 4.000 15000.000 0.000 0.824
8 24.00 1200.02 289 1092 3.100 10000.000 0.000 4.000 15000.000 0.000 0.824
9 27.00 1200.02 329 1097 3.100 10000.000 0.000 4.000 15000.000 0.000 0.824
10 30.00 1200.02 317 1090 3.100 10000.000 0.000 4.000 15000.000 0.000 0.824
11 33.00 1200.02 282 1028 3.100 10000.000 0.000 4.000 15000.000 0.000 0.824
12 36.00 1200.02 285 1057 3.100 10000.000 0.000 4.000 15000.000 0.000 0.824
13 39.00 1200.02 243 1030 3.100 10000.000 0.000 4.000 15000.000 0.000 0.824
14 42.00 1200.02 258 1017 3.100 10000.000 0.000 4.000 15000.000 0.000 0.824
15 45.00 1200.02 232 1022 3.100 10000.000 0.000 4.000 15000.000 0.000 0.824
16 48.00 1200.02 243 1077 3.100 10000.000 0.000 4.000 15000.000 0.000 0.824
17 51.00 1200.02 259 1060 3.100 10000.000 0.000 4.000 15000.000 0.000 0.824
18 54.00 1200.02 328 1013 3.100 10000.000 0.000 4.000 15000.000 0.000 0.824
19 57.00 1200.02 298 981 3.100 10000.000 0.000 4.000 15000.000 0.000 0.824
20 60.00 1200.02 335 1070 3.100 10000.000 0.000 4.000 15000.000 0.000 0.824
21 63.00 1200.02 333 988 3.100 10000.000 0.000 4.000 15000.000 0.000 0.824
22 66.00 1200.02 344 1029 3.100 10000.000 0.000 4.000 15000.000 0.000 0.824
23 69.00 1200.02 333 1040 3.100 10000.000 0.000 4.000 15000.000 0.000 0.824
24 72.00 1200.02 359 1077 3.100 10000.000 0.000 4.000 15000.000 0.000 0.824
25 75.00 1200.02 353 1064 3.100 10000.000 0.000 4.000 15000.000 0.000 0.824
26 78.00 1200.02 348 1083 3.100 10000.000 0.000 4.000 15000.000 0.000 0.824
27 81.00 1200.02 348 1026 3.100 10000.000 0.000 4.000 15000.000 0.000 0.824
28 84.00 1200.02 358 1092 3.100 10000.000 0.000 4.000 15000.000 0.000 0.824
29 87.00 1200.02 361 1024 3.100 10000.000 0.000 4.000 15000.000 0.000 0.824
30 90.00 1200.02 355 1047 3.100 10000.000 0.000 4.000 15000.000 0.000 0.824
31 93.00 1200.02 392 1100 3.100 10000.000 0.000 4.000 15000.000 0.000 0.824
32 96.00 1200.02 335 1090 3.100 10000.000 0.000 4.000 15000.000 0.000 0.824
33 99.00 1200.02 274 1102 3.100 10000.000 0.000 4.000 15000.000 0.000 0.824
34 102.00 1200.02 264 1003 3.100 10000.000 0.000 4.000 15000.000 0.000 0.824
35 105.00 1200.02 241 917 3.100 10000.000 0.000 4.000 15000.000 0.000 0.824
36 108.00 1200.02 200 998 3.100 10000.000 0.000 4.000 15000.000 0.000 0.824
37 111.00 1200.02 210 931 3.100 10000.000 0.000 4.000 15000.000 0.000 0.824
38 114.00 1200.02 174 986 3.100 10000.000 0.000 4.000 15000.000 0.000 0.824
39 117.00 1200.02 184 1013 3.100 10000.000 0.000 4.000 15000.000 0.000 0.824
40 120.00 1200.02 215 1039 3.100 10000.000 0.000 4.000 15000.000 0.000 0.824
41 123.00 1200.02 214 1069 3.100 10000.000 0.000 4.000 15000.000 0.000 0.824
42 126.00 1200.02 256 1098 3.100 10000.000 0.000 4.000 15000.000 0.000 0.824
43 129.00 1200.02 320 1027 3.100 10000.000 0.000 4.000 15000.000 0.000 0.824
44 132.00 1200.02 311 1055 3.100 10000.000 0.000 4.000 15000.000 0.000 0.824
45 135.00 1200.02 302 959 3.100 10000.000 0.000 4.000 15000.000 0.000 0.824
46 138.00 1200.02 344 848 3.100 10000.000 0.000 4.000 15000.000 0.000 0.824
47 141.00 1200.02 350 713 3.100 10000.000 0.000 4.000 15000.000 0.000 0.824
48 144.00 1200.02 347 715 3.100 10000.000 0.000 4.000 15000.000 0.000 0.824
49 147.00 1200.02 351 604 3.100 10000.000 0.000 4.000 15000.000 0.000 0.824
50 150.00 1200.02 384 661 3.100 10000.000 0.000 4.000 15000.000 0.000 0.824
51 153.00 1200.02 353 696 3.100 10000.000 0.000 4.000 15000.000 0.000 0.824
52 156.00 1200.02 363 775 3.100 10000.000 0.000 4.000 15000.000 0.000 0.824
53 159.00 1200.02 362 925 3.100 10000.000 0.000 4.000 15000.000 0.000 0.824
54 162.00 1200.02 361 1025 3.100 10000.000 0.000 4.000 15000.000 0.000 0.824
55 165.00 1200.02 332 1082 3.100 10000.000 0.000 4.000 15000.000 0.000 0.824
56 168.00 1200.02 295 1092 3.100 10000.000 0.000 4.000 15000.000 0.000 0.824
57 171.00 1200.02 284 994 3.100 10000.000 0.000 4.000 15000.000 0.000 0.824
58 174.00 1200.02 282 892 3.100 10000.000 0.000 4.000 15000.000 0.000 0.824
59 177.00 1200.02 265 874 3.100 10000.000 0.000 4.000 15000.000 0.000 0.824
60 180.00 1200.02 247 856 3.100 10000.000 0.000 4.000 15000.000 0.000 0.824
61 183.00 1200.02 232 839 3.100 10000.000 0.000 4.000 15000.000 0.000 0.824
62 186.00 1200.02 235 859 3.100 10000.000 0.000 4.000 15000.000 0.000 0.824
63 189.00 1200.02 270 893 3.100 10000.000 0.000 4.000 15000.000 0.000 0.824
64 192.00 1200.02 311 1067 3.100 10000.000 0.000 4.000 15000.000 0.000 0.824
65 195.00 1200.02 338 1026 3.100 10000.000 0.000 4.000 15000.000 0.000 0.824
66 198.00 1200.02 316 1068 3.100 10000.000 0.000 4.000 15000.000 0.000 0.824
67 201.00 1200.02 345 924 3.100 10000.000 0.000 4.000 15000.000 0.000 0.824
68 204.00 1200.02 344 926 3.100 10000.000 0.000 4.000 15000.000 0.000 0.824
69 207.00 1200.02 356 674 3.100 10000.000 0.000 4.000 15000.000 0.000 0.824
70 210.00 1200.02 385 635 3.100 10000.000 0.000 4.000 15000.000 0.000 0.824
71 213.00 1200.02 362 486 3.100 10000.000 0.000 4.000 15000.000 0.000 0.824
72 216.00 1200.02 398 484 3.100 10000.000 0.000 4.000 15000.000 0.000 0.824
73 219.00 1200.02 390 457 3.100 10000.000 0.000 4.000 15000.000 0.000 0.824
74 222.00 1200.02 349 549 3.100 10000.000 0.000 4.000 15000.000 0.000 0.824
75 225.00 1200.02 340 617 3.100 10000.000 0.000 4.000 15000.000 0.000 0.824
76 228.00 1200.02 362 717 3.100 10000.000 0.000 4.000 15000.000 0.000 0.824
77 231.00 1200.02 318 804 3.100 10000.000 0.000 4.000 15000.000 0.000 0.824
78 234.00 1200.02 367 992 3.100 10000.000 0.000 4.000 15000.000 0.000 0.824
79 237.00 1200.02 307 1065 3.100 10000.000 0.000 4.000 15000.000 0.000 0.824
80 240.00 1200.02 348 1081 3.100 10000.000 0.000 4.000 15000.000 0.000 0.824
81 243.00 1200.02 336 1046 3.100 10000.000 0.000 4.000 15000.000 0.000 0.824
82 246.00 1200.02 326 998 3.100 10000.000 0.000 4.000 15000.000 0.000 0.824
83 249.00 1200.02 318 962 3.100 10000.000 0.000 4.000 15000.000 0.000 0.824
84 252.00 1200.02 330 952 3.100 10000.000 0.000 4.000 15000.000 0.000 0.824
85 255.00 1200.02 350 909 3.100 10000.000 0.000 4.000 15000.000 0.000 0.824
86 258.00 1200.02 341 1035 3.100 10000.000 0.000 4.000 15000.000 0.000 0.824
87 261.00 1200.02 365 1011 3.100 10000.000 0.000 4.000 15000.000 0.000 0.824
88 264.00 1200.02 343 1020 3.100 10000.000 0.000 4.000 15000.000 0.000 0.824
89 267.00 1200.02 322 1059 3.100 10000.000 0.000 4.000 15000.000 0.000 0.824
90 270.00 1200.02 382 1012 3.100 10000.000 0.000 4.000 15000.000 0.000 0.824
91 273.00 1200.02 354 992 3.100 10000.000 0.000 4.000 15000.000 0.000 0.824
92 276.00 1200.02 323 864 3.100 10000.000 0.000 4.000 15000.000 0.000 0.824
93 279.00 1200.02 328 723 3.100 10000.000 0.000 4.000 15000.000 0.000 0.824
94 282.00 1200.02 377 670 3.100 10000.000 0.000 4.000 15000.000 0.000 0.824
95 285.00 1200.02 353 621 3.100 10000.000 0.000 4.000 15000.000 0.000 0.824
96 288.00 1200.02 352 631 3.100 10000.000 0.000 4.000 15000.000 0.000 0.824
97 291.00 1200.02 328 738 3.100 10000.000 0.000 4.000 15000.000 0.000 0.824
98 294.00 1200.02 328 874 3.100 10000.000 0.000 4.000 15000.000 0.000 0.824
99 297.00 1200.02 323 937 3.100 10000.000 0.000 4.000 15000.000 0.000 0.824
100 300.00 1200.02 339 1071 3.100 10000.000 0.000 4.000 15000.000 0.000 0.824
101 303.00 1200.02 351 1080 3.100 10000.000 0.000 4.000 15000.000 0.000 0.824
102 306.00 1200.02 320 1088 3.100 10000.000 0.000 4.000 15000.000 0.000 0.824
103 309.00 1200.02 328 1013 3.100 10000.000 0.000 4.000 15000.000 0.000 0.824
104 312.00 1200.02 375 990 3.100 10000.000 0.000 4.000 15000.000 0.000 0.824
105 315.00 1200.02 338 968 3.100 10000.000 0.000 4.000 15000.000 0.000 0.824
106 318.00 1200.02 361 1105 3.100 10000.000 0.000 4.000 15000.000 0.000 0.824
107 321.00 1200.02 393 1069 3.100 10000.000 0.000 4.000 15000.000 0.000 0.824
108 324.00 1200.02 314 1041 3.100 10000.000 0.000 4.000 15000.000 0.000 0.824
109 327.00 1200.02 343 965 3.100 10000.000 0.000 4.000 15000.000 0.000 0.824
110 330.00 1200.02 348 957 3.100 10000.000 0.000 4.000 15000.000 0.000 0.824
111 333.00 1200.02 361 987 3.100 10000.000 0.000 4.000 15000.000 0.000 0.824
112 336.00 1200.02 340 1004 3.100 10000.000 0.000 4.000 15000.000 0.000 0.824
113 339.00 1200.02 342 1004 3.100 10000.000 0.000 4.000 15000.000 0.000 0.824
114 342.00 1200.02 346 1007 3.100 10000.000 0.000 4.000 15000.000 0.000 0.824
115 345.00 1200.02 344 1065 3.100 10000.000 0.000 4.000 15000.000 0.000 0.824
116 348.00 1200.02 361 1036 3.100 10000.000 0.000 4.000 15000.000 0.000 0.824
117 351.00 1200.02 296 1054 3.100 10000.000 0.000 4.000 15000.000 0.000 0.824
118 354.00 1200.02 342 1065 3.100 10000.000 0.000 4.000 15000.000 0.000 0.824
119 357.00 1200.02 361 1097 3.100 10000.000 0.000 4.000 15000.000 0.000 0.824
120 360.00 1200.02 343 1081 3.100 10000.000 0.000 4.000 15000.000 0.000 0.824
121 363.00 1200.02 354 1041 3.100 10000.000 0.000 4.000 15000.000 0.000 0.824
122 366.00 1200.02 343 983 3.100 10000.000 0.000 4.000 15000.000 0.000 0.824
123 369.00 1200.02 332 1051 3.100 10000.000 0.000 4.000 15000.000 0.000 0.824
124 372.00 1200.02 339 989 3.100 10000.000 0.000 4.000 15000.000 0.000 0.824
125 375.00 1200.02 360 1053 3.100 10000.000 0.000 4.000 15000.000 0.000 0.824
126 378.00 1200.02 387 1060 3.100 10000.000 0.000 4.000 15000.000 0.000 0.824
127 381.00 1200.02 356 1054 3.100 10000.000 0.000 4.000 15000.000 0.000 0.824
128 384.00 1200.02 358 1071 3.100 10000.000 0.000 4.000 15000.000 0.000 0.824
129 387.00 1200.02 367 1019 3.100 10000.000 0.000 4.000 15000.000 0.000 0.824
130 390.00 1200.02 379 1009 3.100 10000.000 0.000 4.000 15000.000 0.000 0.824
131 393.00 1200.02 390 1020 3.100 10000.000 0.000 4.000 15000.000 0.000 0.824
132 396.00 1200.02 368 1091 3.100 10000.000 0.000 4.000 15000.000 0.000 0.824
133 399.00 1200.02 372 1031 3.100 10000.000 0.000 4.000 15000.000 0.000 0.824
134 402.00 1200.02 342 1054 3.100 10000.000 0.000 4.000 15000.000 0.000 0.824
