# BinNR microsec tot-time (s)  O-Beam AUX Ampl(V) f(Hz) phase(deg) chi(pos)
0 0.00 1500.03 102 150 2.050 10000.000 0.000 0.835
1 3.00 1500.03 204 289 2.050 10000.000 0.000 0.835
2 6.00 1500.03 181 290 2.050 10000.000 0.000 0.835
3 9.00 1500.03 179 293 2.050 10000.000 0.000 0.835
4 12.00 1500.03 182 287 2.050 10000.000 0.000 0.835
5 15.00 1500.03 180 267 2.050 10000.000 0.000 0.835
6 18.00 1500.03 202 325 2.050 10000.000 0.000 0.835
7 21.00 1500.03 191 281 2.050 10000.000 0.000 0.835
8 24.00 1500.03 160 288 2.050 10000.000 0.000 0.835
9 27.00 1500.03 184 275 2.050 10000.000 0.000 0.835
10 30.00 1500.03 193 285 2.050 10000.000 0.000 0.835
11 33.00 1500.03 178 266 2.050 10000.000 0.000 0.835
12 36.00 1500.03 180 293 2.050 10000.000 0.000 0.835
13 39.00 1500.03 200 257 2.050 10000.000 0.000 0.835
14 42.00 1500.03 184 287 2.050 10000.000 0.000 0.835
15 45.00 1500.03 213 299 2.050 10000.000 0.000 0.835
16 48.00 1500.03 201 297 2.050 10000.000 0.000 0.835
17 51.00 1500.03 184 295 2.050 10000.000 0.000 0.835
18 54.00 1500.03 202 277 2.050 10000.000 0.000 0.835
19 57.00 1500.03 173 263 2.050 10000.000 0.000 0.835
20 60.00 1500.03 211 303 2.050 10000.000 0.000 0.835
21 63.00 1500.03 178 284 2.050 10000.000 0.000 0.835
22 66.00 1500.03 206 309 2.050 10000.000 0.000 0.835
23 69.00 1500.03 193 277 2.050 10000.000 0.000 0.835
24 72.00 1500.03 179 267 2.050 10000.000 0.000 0.835
25 75.00 1500.03 177 323 2.050 10000.000 0.000 0.835
26 78.00 1500.03 194 281 2.050 10000.000 0.000 0.835
27 81.00 1500.03 197 309 2.050 10000.000 0.000 0.835
28 84.00 1500.03 187 292 2.050 10000.000 0.000 0.835
29 87.00 1500.03 186 312 2.050 10000.000 0.000 0.835
30 90.00 1500.03 205 271 2.050 10000.000 0.000 0.835
31 93.00 1500.03 195 274 2.050 10000.000 0.000 0.835
32 96.00 1500.03 174 296 2.050 10000.000 0.000 0.835
33 99.00 1500.03 194 316 2.050 10000.000 0.000 0.835
34 102.00 1500.03 187 323 2.050 10000.000 0.000 0.835
35 105.00 1500.03 190 305 2.050 10000.000 0.000 0.835
36 108.00 1500.03 212 251 2.050 10000.000 0.000 0.835
37 111.00 1500.03 188 298 2.050 10000.000 0.000 0.835
38 114.00 1500.03 176 303 2.050 10000.000 0.000 0.835
39 117.00 1500.03 195 277 2.050 10000.000 0.000 0.835
40 120.00 1500.03 199 265 2.050 10000.000 0.000 0.835
41 123.00 1500.03 161 278 2.050 10000.000 0.000 0.835
42 126.00 1500.03 204 294 2.050 10000.000 0.000 0.835
43 129.00 1500.03 202 278 2.050 10000.000 0.000 0.835
44 132.00 1500.03 184 305 2.050 10000.000 0.000 0.835
45 135.00 1500.03 201 280 2.050 10000.000 0.000 0.835
46 138.00 1500.03 194 295 2.050 10000.000 0.000 0.835
47 141.00 1500.03 175 283 2.050 10000.000 0.000 0.835
48 144.00 1500.03 219 281 2.050 10000.000 0.000 0.835
49 147.00 1500.03 164 289 2.050 10000.000 0.000 0.835
50 150.00 1500.03 183 289 2.050 10000.000 0.000 0.835
51 153.00 1500.03 184 271 2.050 10000.000 0.000 0.835
52 156.00 1500.03 163 310 2.050 10000.000 0.000 0.835
53 159.00 1500.03 210 280 2.050 10000.000 0.000 0.835
54 162.00 1500.03 216 271 2.050 10000.000 0.000 0.835
55 165.00 1500.03 184 302 2.050 10000.000 0.000 0.835
56 168.00 1500.03 200 275 2.050 10000.000 0.000 0.835
57 171.00 1500.03 220 308 2.050 10000.000 0.000 0.835
58 174.00 1500.03 212 314 2.050 10000.000 0.000 0.835
59 177.00 1500.03 184 296 2.050 10000.000 0.000 0.835
60 180.00 1500.03 178 280 2.050 10000.000 0.000 0.835
61 183.00 1500.03 192 297 2.050 10000.000 0.000 0.835
62 186.00 1500.03 180 277 2.050 10000.000 0.000 0.835
63 189.00 1500.03 184 290 2.050 10000.000 0.000 0.835
64 192.00 1500.03 170 342 2.050 10000.000 0.000 0.835
65 195.00 1500.03 191 307 2.050 10000.000 0.000 0.835
66 198.00 1500.03 175 269 2.050 10000.000 0.000 0.835
67 201.00 1500.03 200 313 2.050 10000.000 0.000 0.835
68 204.00 1500.03 200 301 2.050 10000.000 0.000 0.835
69 207.00 1500.03 166 285 2.050 10000.000 0.000 0.835
70 210.00 1500.03 195 309 2.050 10000.000 0.000 0.835
71 213.00 1500.03 193 296 2.050 10000.000 0.000 0.835
72 216.00 1500.03 170 294 2.050 10000.000 0.000 0.835
73 219.00 1500.03 153 273 2.050 10000.000 0.000 0.835
74 222.00 1500.03 169 322 2.050 10000.000 0.000 0.835
75 225.00 1500.03 187 258 2.050 10000.000 0.000 0.835
76 228.00 1500.03 193 286 2.050 10000.000 0.000 0.835
77 231.00 1500.03 208 324 2.050 10000.000 0.000 0.835
78 234.00 1500.03 193 310 2.050 10000.000 0.000 0.835
79 237.00 1500.03 185 268 2.050 10000.000 0.000 0.835
80 240.00 1500.03 208 313 2.050 10000.000 0.000 0.835
81 243.00 1500.03 189 289 2.050 10000.000 0.000 0.835
82 246.00 1500.03 198 312 2.050 10000.000 0.000 0.835
83 249.00 1500.03 174 307 2.050 10000.000 0.000 0.835
84 252.00 1500.03 204 289 2.050 10000.000 0.000 0.835
85 255.00 1500.03 182 297 2.050 10000.000 0.000 0.835
86 258.00 1500.03 199 300 2.050 10000.000 0.000 0.835
87 261.00 1500.03 180 294 2.050 10000.000 0.000 0.835
88 264.00 1500.03 180 291 2.050 10000.000 0.000 0.835
89 267.00 1500.03 158 291 2.050 10000.000 0.000 0.835
90 270.00 1500.03 166 261 2.050 10000.000 0.000 0.835
91 273.00 1500.03 183 285 2.050 10000.000 0.000 0.835
92 276.00 1500.03 217 309 2.050 10000.000 0.000 0.835
93 279.00 1500.03 193 296 2.050 10000.000 0.000 0.835
94 282.00 1500.03 191 291 2.050 10000.000 0.000 0.835
95 285.00 1500.03 204 313 2.050 10000.000 0.000 0.835
96 288.00 1500.03 212 288 2.050 10000.000 0.000 0.835
97 291.00 1500.03 198 283 2.050 10000.000 0.000 0.835
98 294.00 1500.03 184 295 2.050 10000.000 0.000 0.835
99 297.00 1500.03 168 294 2.050 10000.000 0.000 0.835
100 300.00 1500.03 187 312 2.050 10000.000 0.000 0.835
101 303.00 1500.03 164 307 2.050 10000.000 0.000 0.835
102 306.00 1500.03 226 293 2.050 10000.000 0.000 0.835
103 309.00 1500.03 212 316 2.050 10000.000 0.000 0.835
104 312.00 1500.03 211 349 2.050 10000.000 0.000 0.835
105 315.00 1500.03 217 322 2.050 10000.000 0.000 0.835
106 318.00 1500.03 208 305 2.050 10000.000 0.000 0.835
107 321.00 1500.03 194 274 2.050 10000.000 0.000 0.835
108 324.00 1500.03 161 286 2.050 10000.000 0.000 0.835
109 327.00 1500.03 208 279 2.050 10000.000 0.000 0.835
110 330.00 1500.03 179 318 2.050 10000.000 0.000 0.835
111 333.00 1500.03 187 277 2.050 10000.000 0.000 0.835
112 336.00 1500.03 181 292 2.050 10000.000 0.000 0.835
113 339.00 1500.03 195 286 2.050 10000.000 0.000 0.835
114 342.00 1500.03 223 276 2.050 10000.000 0.000 0.835
115 345.00 1500.03 197 316 2.050 10000.000 0.000 0.835
116 348.00 1500.03 186 296 2.050 10000.000 0.000 0.835
117 351.00 1500.03 171 288 2.050 10000.000 0.000 0.835
118 354.00 1500.03 178 300 2.050 10000.000 0.000 0.835
119 357.00 1500.03 175 326 2.050 10000.000 0.000 0.835
120 360.00 1500.03 208 288 2.050 10000.000 0.000 0.835
121 363.00 1500.03 184 327 2.050 10000.000 0.000 0.835
122 366.00 1500.03 203 288 2.050 10000.000 0.000 0.835
123 369.00 1500.03 166 300 2.050 10000.000 0.000 0.835
124 372.00 1500.03 169 305 2.050 10000.000 0.000 0.835
125 375.00 1500.03 191 293 2.050 10000.000 0.000 0.835
126 378.00 1500.03 199 298 2.050 10000.000 0.000 0.835
127 381.00 1500.03 179 281 2.050 10000.000 0.000 0.835
128 384.00 1500.03 194 281 2.050 10000.000 0.000 0.835
129 387.00 1500.03 167 268 2.050 10000.000 0.000 0.835
130 390.00 1500.03 180 335 2.050 10000.000 0.000 0.835
131 393.00 1500.03 199 290 2.050 10000.000 0.000 0.835
132 396.00 1500.03 202 312 2.050 10000.000 0.000 0.835
133 399.00 1500.03 197 308 2.050 10000.000 0.000 0.835
134 402.00 1500.03 188 293 2.050 10000.000 0.000 0.835
