# BinNR microsec tot-time (s)  O-Beam AUX Ampl(V) f(Hz) phase(deg) chi(pos)
0 0.00 1500.02 131 334 2.050 10000.000 0.000 1.494
1 3.00 1500.02 236 711 2.050 10000.000 0.000 1.494
2 6.00 1500.02 288 713 2.050 10000.000 0.000 1.494
3 9.00 1500.02 236 635 2.050 10000.000 0.000 1.494
4 12.00 1500.02 258 693 2.050 10000.000 0.000 1.494
5 15.00 1500.02 240 648 2.050 10000.000 0.000 1.494
6 18.00 1500.02 230 674 2.050 10000.000 0.000 1.494
7 21.00 1500.02 253 705 2.050 10000.000 0.000 1.494
8 24.00 1500.02 264 689 2.050 10000.000 0.000 1.494
9 27.00 1500.02 252 601 2.050 10000.000 0.000 1.494
10 30.00 1500.02 260 676 2.050 10000.000 0.000 1.494
11 33.00 1500.02 255 686 2.050 10000.000 0.000 1.494
12 36.00 1500.02 233 725 2.050 10000.000 0.000 1.494
13 39.00 1500.02 234 690 2.050 10000.000 0.000 1.494
14 42.00 1500.02 255 676 2.050 10000.000 0.000 1.494
15 45.00 1500.02 243 678 2.050 10000.000 0.000 1.494
16 48.00 1500.02 239 679 2.050 10000.000 0.000 1.494
17 51.00 1500.02 220 680 2.050 10000.000 0.000 1.494
18 54.00 1500.02 262 665 2.050 10000.000 0.000 1.494
19 57.00 1500.02 236 660 2.050 10000.000 0.000 1.494
20 60.00 1500.02 254 647 2.050 10000.000 0.000 1.494
21 63.00 1500.02 254 654 2.050 10000.000 0.000 1.494
22 66.00 1500.02 235 709 2.050 10000.000 0.000 1.494
23 69.00 1500.02 253 662 2.050 10000.000 0.000 1.494
24 72.00 1500.02 267 669 2.050 10000.000 0.000 1.494
25 75.00 1500.02 219 666 2.050 10000.000 0.000 1.494
26 78.00 1500.02 285 743 2.050 10000.000 0.000 1.494
27 81.00 1500.02 267 667 2.050 10000.000 0.000 1.494
28 84.00 1500.02 268 679 2.050 10000.000 0.000 1.494
29 87.00 1500.02 248 719 2.050 10000.000 0.000 1.494
30 90.00 1500.02 256 701 2.050 10000.000 0.000 1.494
31 93.00 1500.02 247 646 2.050 10000.000 0.000 1.494
32 96.00 1500.02 239 753 2.050 10000.000 0.000 1.494
33 99.00 1500.02 228 711 2.050 10000.000 0.000 1.494
34 102.00 1500.02 235 744 2.050 10000.000 0.000 1.494
35 105.00 1500.02 256 673 2.050 10000.000 0.000 1.494
36 108.00 1500.02 255 694 2.050 10000.000 0.000 1.494
37 111.00 1500.02 263 690 2.050 10000.000 0.000 1.494
38 114.00 1500.02 261 658 2.050 10000.000 0.000 1.494
39 117.00 1500.02 239 666 2.050 10000.000 0.000 1.494
40 120.00 1500.02 271 741 2.050 10000.000 0.000 1.494
41 123.00 1500.02 265 673 2.050 10000.000 0.000 1.494
42 126.00 1500.02 259 644 2.050 10000.000 0.000 1.494
43 129.00 1500.02 247 654 2.050 10000.000 0.000 1.494
44 132.00 1500.02 246 683 2.050 10000.000 0.000 1.494
45 135.00 1500.02 238 655 2.050 10000.000 0.000 1.494
46 138.00 1500.02 269 708 2.050 10000.000 0.000 1.494
47 141.00 1500.02 246 660 2.050 10000.000 0.000 1.494
48 144.00 1500.02 249 649 2.050 10000.000 0.000 1.494
49 147.00 1500.02 237 652 2.050 10000.000 0.000 1.494
50 150.00 1500.02 259 722 2.050 10000.000 0.000 1.494
51 153.00 1500.02 242 648 2.050 10000.000 0.000 1.494
52 156.00 1500.02 256 688 2.050 10000.000 0.000 1.494
53 159.00 1500.02 266 718 2.050 10000.000 0.000 1.494
54 162.00 1500.02 256 659 2.050 10000.000 0.000 1.494
55 165.00 1500.02 276 667 2.050 10000.000 0.000 1.494
56 168.00 1500.02 275 697 2.050 10000.000 0.000 1.494
57 171.00 1500.02 241 639 2.050 10000.000 0.000 1.494
58 174.00 1500.02 242 689 2.050 10000.000 0.000 1.494
59 177.00 1500.02 251 689 2.050 10000.000 0.000 1.494
60 180.00 1500.02 257 649 2.050 10000.000 0.000 1.494
61 183.00 1500.02 275 673 2.050 10000.000 0.000 1.494
62 186.00 1500.02 233 709 2.050 10000.000 0.000 1.494
63 189.00 1500.02 249 687 2.050 10000.000 0.000 1.494
64 192.00 1500.02 256 714 2.050 10000.000 0.000 1.494
65 195.00 1500.02 210 693 2.050 10000.000 0.000 1.494
66 198.00 1500.02 248 672 2.050 10000.000 0.000 1.494
67 201.00 1500.02 287 722 2.050 10000.000 0.000 1.494
68 204.00 1500.02 244 676 2.050 10000.000 0.000 1.494
69 207.00 1500.02 267 720 2.050 10000.000 0.000 1.494
70 210.00 1500.02 235 702 2.050 10000.000 0.000 1.494
71 213.00 1500.02 240 633 2.050 10000.000 0.000 1.494
72 216.00 1500.02 243 720 2.050 10000.000 0.000 1.494
73 219.00 1500.02 282 672 2.050 10000.000 0.000 1.494
74 222.00 1500.02 238 640 2.050 10000.000 0.000 1.494
75 225.00 1500.02 233 689 2.050 10000.000 0.000 1.494
76 228.00 1500.02 266 676 2.050 10000.000 0.000 1.494
77 231.00 1500.02 268 696 2.050 10000.000 0.000 1.494
78 234.00 1500.02 235 663 2.050 10000.000 0.000 1.494
79 237.00 1500.02 243 650 2.050 10000.000 0.000 1.494
80 240.00 1500.02 248 689 2.050 10000.000 0.000 1.494
81 243.00 1500.02 268 649 2.050 10000.000 0.000 1.494
82 246.00 1500.02 265 673 2.050 10000.000 0.000 1.494
83 249.00 1500.02 209 739 2.050 10000.000 0.000 1.494
84 252.00 1500.02 232 710 2.050 10000.000 0.000 1.494
85 255.00 1500.02 254 661 2.050 10000.000 0.000 1.494
86 258.00 1500.02 241 670 2.050 10000.000 0.000 1.494
87 261.00 1500.02 242 680 2.050 10000.000 0.000 1.494
88 264.00 1500.02 255 653 2.050 10000.000 0.000 1.494
89 267.00 1500.02 270 676 2.050 10000.000 0.000 1.494
90 270.00 1500.02 242 660 2.050 10000.000 0.000 1.494
91 273.00 1500.02 237 646 2.050 10000.000 0.000 1.494
92 276.00 1500.02 214 632 2.050 10000.000 0.000 1.494
93 279.00 1500.02 238 701 2.050 10000.000 0.000 1.494
94 282.00 1500.02 289 633 2.050 10000.000 0.000 1.494
95 285.00 1500.02 244 651 2.050 10000.000 0.000 1.494
96 288.00 1500.02 245 675 2.050 10000.000 0.000 1.494
97 291.00 1500.02 267 724 2.050 10000.000 0.000 1.494
98 294.00 1500.02 266 705 2.050 10000.000 0.000 1.494
99 297.00 1500.02 226 695 2.050 10000.000 0.000 1.494
100 300.00 1500.02 243 675 2.050 10000.000 0.000 1.494
101 303.00 1500.02 229 712 2.050 10000.000 0.000 1.494
102 306.00 1500.02 275 693 2.050 10000.000 0.000 1.494
103 309.00 1500.02 248 664 2.050 10000.000 0.000 1.494
104 312.00 1500.02 253 676 2.050 10000.000 0.000 1.494
105 315.00 1500.02 275 641 2.050 10000.000 0.000 1.494
106 318.00 1500.02 244 693 2.050 10000.000 0.000 1.494
107 321.00 1500.02 269 712 2.050 10000.000 0.000 1.494
108 324.00 1500.02 259 654 2.050 10000.000 0.000 1.494
109 327.00 1500.02 229 660 2.050 10000.000 0.000 1.494
110 330.00 1500.02 255 711 2.050 10000.000 0.000 1.494
111 333.00 1500.02 259 653 2.050 10000.000 0.000 1.494
112 336.00 1500.02 243 723 2.050 10000.000 0.000 1.494
113 339.00 1500.02 230 657 2.050 10000.000 0.000 1.494
114 342.00 1500.02 266 709 2.050 10000.000 0.000 1.494
115 345.00 1500.02 244 690 2.050 10000.000 0.000 1.494
116 348.00 1500.02 252 677 2.050 10000.000 0.000 1.494
117 351.00 1500.02 259 655 2.050 10000.000 0.000 1.494
118 354.00 1500.02 239 716 2.050 10000.000 0.000 1.494
119 357.00 1500.02 259 702 2.050 10000.000 0.000 1.494
120 360.00 1500.02 252 703 2.050 10000.000 0.000 1.494
121 363.00 1500.02 253 702 2.050 10000.000 0.000 1.494
122 366.00 1500.02 230 665 2.050 10000.000 0.000 1.494
123 369.00 1500.02 254 645 2.050 10000.000 0.000 1.494
124 372.00 1500.02 239 627 2.050 10000.000 0.000 1.494
125 375.00 1500.02 245 616 2.050 10000.000 0.000 1.494
126 378.00 1500.02 264 675 2.050 10000.000 0.000 1.494
127 381.00 1500.02 233 672 2.050 10000.000 0.000 1.494
128 384.00 1500.02 246 675 2.050 10000.000 0.000 1.494
129 387.00 1500.02 217 633 2.050 10000.000 0.000 1.494
130 390.00 1500.02 239 674 2.050 10000.000 0.000 1.494
131 393.00 1500.02 294 686 2.050 10000.000 0.000 1.494
132 396.00 1500.02 224 647 2.050 10000.000 0.000 1.494
133 399.00 1500.02 246 649 2.050 10000.000 0.000 1.494
134 402.00 1500.02 242 700 2.050 10000.000 0.000 1.494
