# BinNR microsec tot-time (s)  O-Beam AUX Ampl(V) f(Hz) phase(deg) chi(pos)
0 0.00 1500.01 208 656 2.050 10000.000 0.000 0.000
1 3.00 1500.01 415 1300 2.050 10000.000 0.000 0.000
2 6.00 1500.01 437 1274 2.050 10000.000 0.000 0.000
3 9.00 1500.01 438 1304 2.050 10000.000 0.000 0.000
4 12.00 1500.01 425 1347 2.050 10000.000 0.000 0.000
5 15.00 1500.01 444 1253 2.050 10000.000 0.000 0.000
6 18.00 1500.01 399 1315 2.050 10000.000 0.000 0.000
7 21.00 1500.01 422 1252 2.050 10000.000 0.000 0.000
8 24.00 1500.01 436 1286 2.050 10000.000 0.000 0.000
9 27.00 1500.01 392 1300 2.050 10000.000 0.000 0.000
10 30.00 1500.01 463 1272 2.050 10000.000 0.000 0.000
11 33.00 1500.01 403 1268 2.050 10000.000 0.000 0.000
12 36.00 1500.01 414 1315 2.050 10000.000 0.000 0.000
13 39.00 1500.01 401 1340 2.050 10000.000 0.000 0.000
14 42.00 1500.01 449 1294 2.050 10000.000 0.000 0.000
15 45.00 1500.01 398 1298 2.050 10000.000 0.000 0.000
16 48.00 1500.01 434 1318 2.050 10000.000 0.000 0.000
17 51.00 1500.01 416 1252 2.050 10000.000 0.000 0.000
18 54.00 1500.01 427 1228 2.050 10000.000 0.000 0.000
19 57.00 1500.01 406 1261 2.050 10000.000 0.000 0.000
20 60.00 1500.01 434 1225 2.050 10000.000 0.000 0.000
21 63.00 1500.01 390 1275 2.050 10000.000 0.000 0.000
22 66.00 1500.01 432 1309 2.050 10000.000 0.000 0.000
23 69.00 1500.01 420 1259 2.050 10000.000 0.000 0.000
24 72.00 1500.01 416 1222 2.050 10000.000 0.000 0.000
25 75.00 1500.01 423 1251 2.050 10000.000 0.000 0.000
26 78.00 1500.01 426 1310 2.050 10000.000 0.000 0.000
27 81.00 1500.01 442 1295 2.050 10000.000 0.000 0.000
28 84.00 1500.01 413 1261 2.050 10000.000 0.000 0.000
29 87.00 1500.01 387 1289 2.050 10000.000 0.000 0.000
30 90.00 1500.01 426 1302 2.050 10000.000 0.000 0.000
31 93.00 1500.01 372 1231 2.050 10000.000 0.000 0.000
32 96.00 1500.01 442 1335 2.050 10000.000 0.000 0.000
33 99.00 1500.01 407 1321 2.050 10000.000 0.000 0.000
34 102.00 1500.01 409 1269 2.050 10000.000 0.000 0.000
35 105.00 1500.01 398 1269 2.050 10000.000 0.000 0.000
36 108.00 1500.01 446 1278 2.050 10000.000 0.000 0.000
37 111.00 1500.01 388 1274 2.050 10000.000 0.000 0.000
38 114.00 1500.01 382 1305 2.050 10000.000 0.000 0.000
39 117.00 1500.01 399 1238 2.050 10000.000 0.000 0.000
40 120.00 1500.01 416 1262 2.050 10000.000 0.000 0.000
41 123.00 1500.01 401 1206 2.050 10000.000 0.000 0.000
42 126.00 1500.01 430 1248 2.050 10000.000 0.000 0.000
43 129.00 1500.01 411 1203 2.050 10000.000 0.000 0.000
44 132.00 1500.01 423 1314 2.050 10000.000 0.000 0.000
45 135.00 1500.01 410 1261 2.050 10000.000 0.000 0.000
46 138.00 1500.01 406 1236 2.050 10000.000 0.000 0.000
47 141.00 1500.01 417 1256 2.050 10000.000 0.000 0.000
48 144.00 1500.01 417 1304 2.050 10000.000 0.000 0.000
49 147.00 1500.01 432 1280 2.050 10000.000 0.000 0.000
50 150.00 1500.01 408 1291 2.050 10000.000 0.000 0.000
51 153.00 1500.01 415 1326 2.050 10000.000 0.000 0.000
52 156.00 1500.01 431 1255 2.050 10000.000 0.000 0.000
53 159.00 1500.01 403 1332 2.050 10000.000 0.000 0.000
54 162.00 1500.01 416 1259 2.050 10000.000 0.000 0.000
55 165.00 1500.01 413 1227 2.050 10000.000 0.000 0.000
56 168.00 1500.01 402 1286 2.050 10000.000 0.000 0.000
57 171.00 1500.01 432 1165 2.050 10000.000 0.000 0.000
58 174.00 1500.01 422 1281 2.050 10000.000 0.000 0.000
59 177.00 1500.01 456 1239 2.050 10000.000 0.000 0.000
60 180.00 1500.01 406 1245 2.050 10000.000 0.000 0.000
61 183.00 1500.01 407 1281 2.050 10000.000 0.000 0.000
62 186.00 1500.01 468 1268 2.050 10000.000 0.000 0.000
63 189.00 1500.01 463 1276 2.050 10000.000 0.000 0.000
64 192.00 1500.01 409 1298 2.050 10000.000 0.000 0.000
65 195.00 1500.01 380 1249 2.050 10000.000 0.000 0.000
66 198.00 1500.01 418 1238 2.050 10000.000 0.000 0.000
67 201.00 1500.01 410 1280 2.050 10000.000 0.000 0.000
68 204.00 1500.01 449 1297 2.050 10000.000 0.000 0.000
69 207.00 1500.01 434 1305 2.050 10000.000 0.000 0.000
70 210.00 1500.01 434 1310 2.050 10000.000 0.000 0.000
71 213.00 1500.01 425 1263 2.050 10000.000 0.000 0.000
72 216.00 1500.01 433 1314 2.050 10000.000 0.000 0.000
73 219.00 1500.01 421 1314 2.050 10000.000 0.000 0.000
74 222.00 1500.01 409 1337 2.050 10000.000 0.000 0.000
75 225.00 1500.01 458 1274 2.050 10000.000 0.000 0.000
76 228.00 1500.01 394 1310 2.050 10000.000 0.000 0.000
77 231.00 1500.01 384 1258 2.050 10000.000 0.000 0.000
78 234.00 1500.01 449 1294 2.050 10000.000 0.000 0.000
79 237.00 1500.01 432 1250 2.050 10000.000 0.000 0.000
80 240.00 1500.01 405 1217 2.050 10000.000 0.000 0.000
81 243.00 1500.01 408 1306 2.050 10000.000 0.000 0.000
82 246.00 1500.01 409 1327 2.050 10000.000 0.000 0.000
83 249.00 1500.01 396 1306 2.050 10000.000 0.000 0.000
84 252.00 1500.01 423 1276 2.050 10000.000 0.000 0.000
85 255.00 1500.01 408 1299 2.050 10000.000 0.000 0.000
86 258.00 1500.01 427 1296 2.050 10000.000 0.000 0.000
87 261.00 1500.01 416 1291 2.050 10000.000 0.000 0.000
88 264.00 1500.01 377 1232 2.050 10000.000 0.000 0.000
89 267.00 1500.01 379 1202 2.050 10000.000 0.000 0.000
90 270.00 1500.01 459 1274 2.050 10000.000 0.000 0.000
91 273.00 1500.01 416 1279 2.050 10000.000 0.000 0.000
92 276.00 1500.01 467 1329 2.050 10000.000 0.000 0.000
93 279.00 1500.01 441 1298 2.050 10000.000 0.000 0.000
94 282.00 1500.01 407 1212 2.050 10000.000 0.000 0.000
95 285.00 1500.01 404 1242 2.050 10000.000 0.000 0.000
96 288.00 1500.01 407 1275 2.050 10000.000 0.000 0.000
97 291.00 1500.01 414 1240 2.050 10000.000 0.000 0.000
98 294.00 1500.01 439 1288 2.050 10000.000 0.000 0.000
99 297.00 1500.01 420 1271 2.050 10000.000 0.000 0.000
100 300.00 1500.01 440 1211 2.050 10000.000 0.000 0.000
101 303.00 1500.01 426 1244 2.050 10000.000 0.000 0.000
102 306.00 1500.01 401 1232 2.050 10000.000 0.000 0.000
103 309.00 1500.01 445 1230 2.050 10000.000 0.000 0.000
104 312.00 1500.01 404 1213 2.050 10000.000 0.000 0.000
105 315.00 1500.01 413 1292 2.050 10000.000 0.000 0.000
106 318.00 1500.01 424 1229 2.050 10000.000 0.000 0.000
107 321.00 1500.01 424 1249 2.050 10000.000 0.000 0.000
108 324.00 1500.01 430 1249 2.050 10000.000 0.000 0.000
109 327.00 1500.01 390 1283 2.050 10000.000 0.000 0.000
110 330.00 1500.01 403 1315 2.050 10000.000 0.000 0.000
111 333.00 1500.01 413 1294 2.050 10000.000 0.000 0.000
112 336.00 1500.01 420 1337 2.050 10000.000 0.000 0.000
113 339.00 1500.01 401 1251 2.050 10000.000 0.000 0.000
114 342.00 1500.01 397 1329 2.050 10000.000 0.000 0.000
115 345.00 1500.01 392 1203 2.050 10000.000 0.000 0.000
116 348.00 1500.01 433 1295 2.050 10000.000 0.000 0.000
117 351.00 1500.01 444 1260 2.050 10000.000 0.000 0.000
118 354.00 1500.01 405 1297 2.050 10000.000 0.000 0.000
119 357.00 1500.01 438 1296 2.050 10000.000 0.000 0.000
120 360.00 1500.01 422 1266 2.050 10000.000 0.000 0.000
121 363.00 1500.01 425 1306 2.050 10000.000 0.000 0.000
122 366.00 1500.01 413 1306 2.050 10000.000 0.000 0.000
123 369.00 1500.01 389 1280 2.050 10000.000 0.000 0.000
124 372.00 1500.01 426 1279 2.050 10000.000 0.000 0.000
125 375.00 1500.01 428 1276 2.050 10000.000 0.000 0.000
126 378.00 1500.01 400 1346 2.050 10000.000 0.000 0.000
127 381.00 1500.01 444 1308 2.050 10000.000 0.000 0.000
128 384.00 1500.01 429 1361 2.050 10000.000 0.000 0.000
129 387.00 1500.01 423 1309 2.050 10000.000 0.000 0.000
130 390.00 1500.01 419 1294 2.050 10000.000 0.000 0.000
131 393.00 1500.01 431 1237 2.050 10000.000 0.000 0.000
132 396.00 1500.01 420 1323 2.050 10000.000 0.000 0.000
133 399.00 1500.01 385 1341 2.050 10000.000 0.000 0.000
134 402.00 1500.01 429 1343 2.050 10000.000 0.000 0.000
