# BinNR microsec tot-time (s)  O-Beam AUX Ampl(V) f(Hz) phase(deg) chi(pos)
0 0.00 1500.00 239 563 2.050 10000.000 0.000 0.154
1 3.00 1500.00 392 1155 2.050 10000.000 0.000 0.154
2 6.00 1500.00 416 1184 2.050 10000.000 0.000 0.154
3 9.00 1500.00 460 1224 2.050 10000.000 0.000 0.154
4 12.00 1500.00 438 1206 2.050 10000.000 0.000 0.154
5 15.00 1500.00 437 1248 2.050 10000.000 0.000 0.154
6 18.00 1500.00 444 1212 2.050 10000.000 0.000 0.154
7 21.00 1500.00 412 1235 2.050 10000.000 0.000 0.154
8 24.00 1500.00 432 1198 2.050 10000.000 0.000 0.154
9 27.00 1500.00 364 1239 2.050 10000.000 0.000 0.154
10 30.00 1500.00 403 1214 2.050 10000.000 0.000 0.154
11 33.00 1500.00 423 1221 2.050 10000.000 0.000 0.154
12 36.00 1500.00 421 1226 2.050 10000.000 0.000 0.154
13 39.00 1500.00 426 1219 2.050 10000.000 0.000 0.154
14 42.00 1500.00 394 1206 2.050 10000.000 0.000 0.154
15 45.00 1500.00 383 1199 2.050 10000.000 0.000 0.154
16 48.00 1500.00 459 1207 2.050 10000.000 0.000 0.154
17 51.00 1500.00 409 1161 2.050 10000.000 0.000 0.154
18 54.00 1500.00 392 1202 2.050 10000.000 0.000 0.154
19 57.00 1500.00 369 1194 2.050 10000.000 0.000 0.154
20 60.00 1500.00 399 1231 2.050 10000.000 0.000 0.154
21 63.00 1500.00 405 1197 2.050 10000.000 0.000 0.154
22 66.00 1500.00 417 1228 2.050 10000.000 0.000 0.154
23 69.00 1500.00 421 1232 2.050 10000.000 0.000 0.154
24 72.00 1500.00 388 1198 2.050 10000.000 0.000 0.154
25 75.00 1500.00 415 1229 2.050 10000.000 0.000 0.154
26 78.00 1500.00 413 1245 2.050 10000.000 0.000 0.154
27 81.00 1500.00 425 1210 2.050 10000.000 0.000 0.154
28 84.00 1500.00 428 1192 2.050 10000.000 0.000 0.154
29 87.00 1500.00 417 1228 2.050 10000.000 0.000 0.154
30 90.00 1500.00 420 1213 2.050 10000.000 0.000 0.154
31 93.00 1500.00 372 1199 2.050 10000.000 0.000 0.154
32 96.00 1500.00 431 1223 2.050 10000.000 0.000 0.154
33 99.00 1500.00 397 1192 2.050 10000.000 0.000 0.154
34 102.00 1500.00 420 1188 2.050 10000.000 0.000 0.154
35 105.00 1500.00 406 1203 2.050 10000.000 0.000 0.154
36 108.00 1500.00 416 1193 2.050 10000.000 0.000 0.154
37 111.00 1500.00 386 1164 2.050 10000.000 0.000 0.154
38 114.00 1500.00 432 1297 2.050 10000.000 0.000 0.154
39 117.00 1500.00 407 1097 2.050 10000.000 0.000 0.154
40 120.00 1500.00 420 1167 2.050 10000.000 0.000 0.154
41 123.00 1500.00 408 1180 2.050 10000.000 0.000 0.154
42 126.00 1500.00 436 1171 2.050 10000.000 0.000 0.154
43 129.00 1500.00 399 1167 2.050 10000.000 0.000 0.154
44 132.00 1500.00 390 1199 2.050 10000.000 0.000 0.154
45 135.00 1500.00 399 1244 2.050 10000.000 0.000 0.154
46 138.00 1500.00 403 1180 2.050 10000.000 0.000 0.154
47 141.00 1500.00 413 1222 2.050 10000.000 0.000 0.154
48 144.00 1500.00 399 1221 2.050 10000.000 0.000 0.154
49 147.00 1500.00 370 1221 2.050 10000.000 0.000 0.154
50 150.00 1500.00 418 1172 2.050 10000.000 0.000 0.154
51 153.00 1500.00 406 1196 2.050 10000.000 0.000 0.154
52 156.00 1500.00 373 1209 2.050 10000.000 0.000 0.154
53 159.00 1500.00 420 1158 2.050 10000.000 0.000 0.154
54 162.00 1500.00 410 1181 2.050 10000.000 0.000 0.154
55 165.00 1500.00 396 1195 2.050 10000.000 0.000 0.154
56 168.00 1500.00 438 1259 2.050 10000.000 0.000 0.154
57 171.00 1500.00 434 1200 2.050 10000.000 0.000 0.154
58 174.00 1500.00 429 1247 2.050 10000.000 0.000 0.154
59 177.00 1500.00 377 1213 2.050 10000.000 0.000 0.154
60 180.00 1500.00 447 1224 2.050 10000.000 0.000 0.154
61 183.00 1500.00 399 1237 2.050 10000.000 0.000 0.154
62 186.00 1500.00 409 1226 2.050 10000.000 0.000 0.154
63 189.00 1500.00 391 1159 2.050 10000.000 0.000 0.154
64 192.00 1500.00 444 1250 2.050 10000.000 0.000 0.154
65 195.00 1500.00 395 1129 2.050 10000.000 0.000 0.154
66 198.00 1500.00 413 1194 2.050 10000.000 0.000 0.154
67 201.00 1500.00 439 1228 2.050 10000.000 0.000 0.154
68 204.00 1500.00 436 1157 2.050 10000.000 0.000 0.154
69 207.00 1500.00 424 1253 2.050 10000.000 0.000 0.154
70 210.00 1500.00 392 1188 2.050 10000.000 0.000 0.154
71 213.00 1500.00 424 1187 2.050 10000.000 0.000 0.154
72 216.00 1500.00 417 1218 2.050 10000.000 0.000 0.154
73 219.00 1500.00 366 1174 2.050 10000.000 0.000 0.154
74 222.00 1500.00 400 1191 2.050 10000.000 0.000 0.154
75 225.00 1500.00 400 1211 2.050 10000.000 0.000 0.154
76 228.00 1500.00 410 1191 2.050 10000.000 0.000 0.154
77 231.00 1500.00 427 1159 2.050 10000.000 0.000 0.154
78 234.00 1500.00 419 1297 2.050 10000.000 0.000 0.154
79 237.00 1500.00 419 1175 2.050 10000.000 0.000 0.154
80 240.00 1500.00 422 1230 2.050 10000.000 0.000 0.154
81 243.00 1500.00 415 1194 2.050 10000.000 0.000 0.154
82 246.00 1500.00 391 1255 2.050 10000.000 0.000 0.154
83 249.00 1500.00 426 1190 2.050 10000.000 0.000 0.154
84 252.00 1500.00 419 1208 2.050 10000.000 0.000 0.154
85 255.00 1500.00 401 1164 2.050 10000.000 0.000 0.154
86 258.00 1500.00 388 1216 2.050 10000.000 0.000 0.154
87 261.00 1500.00 398 1189 2.050 10000.000 0.000 0.154
88 264.00 1500.00 427 1216 2.050 10000.000 0.000 0.154
89 267.00 1500.00 407 1161 2.050 10000.000 0.000 0.154
90 270.00 1500.00 421 1252 2.050 10000.000 0.000 0.154
91 273.00 1500.00 435 1137 2.050 10000.000 0.000 0.154
92 276.00 1500.00 422 1171 2.050 10000.000 0.000 0.154
93 279.00 1500.00 381 1217 2.050 10000.000 0.000 0.154
94 282.00 1500.00 438 1217 2.050 10000.000 0.000 0.154
95 285.00 1500.00 400 1157 2.050 10000.000 0.000 0.154
96 288.00 1500.00 404 1180 2.050 10000.000 0.000 0.154
97 291.00 1500.00 362 1183 2.050 10000.000 0.000 0.154
98 294.00 1500.00 406 1173 2.050 10000.000 0.000 0.154
99 297.00 1500.00 426 1171 2.050 10000.000 0.000 0.154
100 300.00 1500.00 375 1214 2.050 10000.000 0.000 0.154
101 303.00 1500.00 407 1232 2.050 10000.000 0.000 0.154
102 306.00 1500.00 424 1186 2.050 10000.000 0.000 0.154
103 309.00 1500.00 420 1208 2.050 10000.000 0.000 0.154
104 312.00 1500.00 382 1167 2.050 10000.000 0.000 0.154
105 315.00 1500.00 405 1212 2.050 10000.000 0.000 0.154
106 318.00 1500.00 425 1218 2.050 10000.000 0.000 0.154
107 321.00 1500.00 405 1247 2.050 10000.000 0.000 0.154
108 324.00 1500.00 381 1182 2.050 10000.000 0.000 0.154
109 327.00 1500.00 431 1229 2.050 10000.000 0.000 0.154
110 330.00 1500.00 399 1219 2.050 10000.000 0.000 0.154
111 333.00 1500.00 423 1183 2.050 10000.000 0.000 0.154
112 336.00 1500.00 422 1224 2.050 10000.000 0.000 0.154
113 339.00 1500.00 398 1180 2.050 10000.000 0.000 0.154
114 342.00 1500.00 439 1258 2.050 10000.000 0.000 0.154
115 345.00 1500.00 420 1219 2.050 10000.000 0.000 0.154
116 348.00 1500.00 422 1229 2.050 10000.000 0.000 0.154
117 351.00 1500.00 417 1225 2.050 10000.000 0.000 0.154
118 354.00 1500.00 419 1243 2.050 10000.000 0.000 0.154
119 357.00 1500.00 432 1193 2.050 10000.000 0.000 0.154
120 360.00 1500.00 380 1224 2.050 10000.000 0.000 0.154
121 363.00 1500.00 404 1164 2.050 10000.000 0.000 0.154
122 366.00 1500.00 391 1239 2.050 10000.000 0.000 0.154
123 369.00 1500.00 398 1248 2.050 10000.000 0.000 0.154
124 372.00 1500.00 412 1266 2.050 10000.000 0.000 0.154
125 375.00 1500.00 418 1221 2.050 10000.000 0.000 0.154
126 378.00 1500.00 429 1228 2.050 10000.000 0.000 0.154
127 381.00 1500.00 445 1146 2.050 10000.000 0.000 0.154
128 384.00 1500.00 437 1174 2.050 10000.000 0.000 0.154
129 387.00 1500.00 390 1246 2.050 10000.000 0.000 0.154
130 390.00 1500.00 426 1240 2.050 10000.000 0.000 0.154
131 393.00 1500.00 417 1169 2.050 10000.000 0.000 0.154
132 396.00 1500.00 385 1255 2.050 10000.000 0.000 0.154
133 399.00 1500.00 418 1196 2.050 10000.000 0.000 0.154
134 402.00 1500.00 449 1173 2.050 10000.000 0.000 0.154
