# BinNR microsec tot-time (s)  O-Beam AUX Ampl(V) f(Hz) phase(deg) chi(pos)
0 0.00 1500.00 94 213 2.050 10000.000 0.000 1.329
1 3.00 1500.00 185 422 2.050 10000.000 0.000 1.329
2 6.00 1500.00 201 414 2.050 10000.000 0.000 1.329
3 9.00 1500.00 185 378 2.050 10000.000 0.000 1.329
4 12.00 1500.00 191 407 2.050 10000.000 0.000 1.329
5 15.00 1500.00 170 359 2.050 10000.000 0.000 1.329
6 18.00 1500.00 181 387 2.050 10000.000 0.000 1.329
7 21.00 1500.00 185 367 2.050 10000.000 0.000 1.329
8 24.00 1500.00 184 414 2.050 10000.000 0.000 1.329
9 27.00 1500.00 165 401 2.050 10000.000 0.000 1.329
10 30.00 1500.00 176 431 2.050 10000.000 0.000 1.329
11 33.00 1500.00 175 400 2.050 10000.000 0.000 1.329
12 36.00 1500.00 194 430 2.050 10000.000 0.000 1.329
13 39.00 1500.00 170 391 2.050 10000.000 0.000 1.329
14 42.00 1500.00 178 402 2.050 10000.000 0.000 1.329
15 45.00 1500.00 194 384 2.050 10000.000 0.000 1.329
16 48.00 1500.00 187 376 2.050 10000.000 0.000 1.329
17 51.00 1500.00 174 416 2.050 10000.000 0.000 1.329
18 54.00 1500.00 202 407 2.050 10000.000 0.000 1.329
19 57.00 1500.00 166 437 2.050 10000.000 0.000 1.329
20 60.00 1500.00 197 410 2.050 10000.000 0.000 1.329
21 63.00 1500.00 202 396 2.050 10000.000 0.000 1.329
22 66.00 1500.00 190 421 2.050 10000.000 0.000 1.329
23 69.00 1500.00 175 387 2.050 10000.000 0.000 1.329
24 72.00 1500.00 179 414 2.050 10000.000 0.000 1.329
25 75.00 1500.00 180 377 2.050 10000.000 0.000 1.329
26 78.00 1500.00 198 426 2.050 10000.000 0.000 1.329
27 81.00 1500.00 182 372 2.050 10000.000 0.000 1.329
28 84.00 1500.00 175 385 2.050 10000.000 0.000 1.329
29 87.00 1500.00 186 401 2.050 10000.000 0.000 1.329
30 90.00 1500.00 216 449 2.050 10000.000 0.000 1.329
31 93.00 1500.00 185 420 2.050 10000.000 0.000 1.329
32 96.00 1500.00 193 420 2.050 10000.000 0.000 1.329
33 99.00 1500.00 170 401 2.050 10000.000 0.000 1.329
34 102.00 1500.00 174 440 2.050 10000.000 0.000 1.329
35 105.00 1500.00 204 361 2.050 10000.000 0.000 1.329
36 108.00 1500.00 172 402 2.050 10000.000 0.000 1.329
37 111.00 1500.00 150 428 2.050 10000.000 0.000 1.329
38 114.00 1500.00 197 390 2.050 10000.000 0.000 1.329
39 117.00 1500.00 174 399 2.050 10000.000 0.000 1.329
40 120.00 1500.00 173 363 2.050 10000.000 0.000 1.329
41 123.00 1500.00 208 388 2.050 10000.000 0.000 1.329
42 126.00 1500.00 203 393 2.050 10000.000 0.000 1.329
43 129.00 1500.00 198 399 2.050 10000.000 0.000 1.329
44 132.00 1500.00 180 420 2.050 10000.000 0.000 1.329
45 135.00 1500.00 199 389 2.050 10000.000 0.000 1.329
46 138.00 1500.00 189 418 2.050 10000.000 0.000 1.329
47 141.00 1500.00 209 407 2.050 10000.000 0.000 1.329
48 144.00 1500.00 198 395 2.050 10000.000 0.000 1.329
49 147.00 1500.00 180 389 2.050 10000.000 0.000 1.329
50 150.00 1500.00 208 412 2.050 10000.000 0.000 1.329
51 153.00 1500.00 177 399 2.050 10000.000 0.000 1.329
52 156.00 1500.00 175 394 2.050 10000.000 0.000 1.329
53 159.00 1500.00 176 420 2.050 10000.000 0.000 1.329
54 162.00 1500.00 190 427 2.050 10000.000 0.000 1.329
55 165.00 1500.00 202 421 2.050 10000.000 0.000 1.329
56 168.00 1500.00 182 424 2.050 10000.000 0.000 1.329
57 171.00 1500.00 172 440 2.050 10000.000 0.000 1.329
58 174.00 1500.00 209 398 2.050 10000.000 0.000 1.329
59 177.00 1500.00 203 425 2.050 10000.000 0.000 1.329
60 180.00 1500.00 171 415 2.050 10000.000 0.000 1.329
61 183.00 1500.00 191 409 2.050 10000.000 0.000 1.329
62 186.00 1500.00 222 449 2.050 10000.000 0.000 1.329
63 189.00 1500.00 173 392 2.050 10000.000 0.000 1.329
64 192.00 1500.00 192 459 2.050 10000.000 0.000 1.329
65 195.00 1500.00 194 386 2.050 10000.000 0.000 1.329
66 198.00 1500.00 185 426 2.050 10000.000 0.000 1.329
67 201.00 1500.00 190 382 2.050 10000.000 0.000 1.329
68 204.00 1500.00 184 433 2.050 10000.000 0.000 1.329
69 207.00 1500.00 193 388 2.050 10000.000 0.000 1.329
70 210.00 1500.00 189 416 2.050 10000.000 0.000 1.329
71 213.00 1500.00 192 376 2.050 10000.000 0.000 1.329
72 216.00 1500.00 173 392 2.050 10000.000 0.000 1.329
73 219.00 1500.00 194 412 2.050 10000.000 0.000 1.329
74 222.00 1500.00 192 411 2.050 10000.000 0.000 1.329
75 225.00 1500.00 181 424 2.050 10000.000 0.000 1.329
76 228.00 1500.00 181 398 2.050 10000.000 0.000 1.329
77 231.00 1500.00 180 379 2.050 10000.000 0.000 1.329
78 234.00 1500.00 209 423 2.050 10000.000 0.000 1.329
79 237.00 1500.00 198 388 2.050 10000.000 0.000 1.329
80 240.00 1500.00 212 405 2.050 10000.000 0.000 1.329
81 243.00 1500.00 192 411 2.050 10000.000 0.000 1.329
82 246.00 1500.00 171 411 2.050 10000.000 0.000 1.329
83 249.00 1500.00 192 423 2.050 10000.000 0.000 1.329
84 252.00 1500.00 223 439 2.050 10000.000 0.000 1.329
85 255.00 1500.00 171 442 2.050 10000.000 0.000 1.329
86 258.00 1500.00 192 408 2.050 10000.000 0.000 1.329
87 261.00 1500.00 200 404 2.050 10000.000 0.000 1.329
88 264.00 1500.00 200 424 2.050 10000.000 0.000 1.329
89 267.00 1500.00 173 366 2.050 10000.000 0.000 1.329
90 270.00 1500.00 175 442 2.050 10000.000 0.000 1.329
91 273.00 1500.00 196 395 2.050 10000.000 0.000 1.329
92 276.00 1500.00 195 378 2.050 10000.000 0.000 1.329
93 279.00 1500.00 183 407 2.050 10000.000 0.000 1.329
94 282.00 1500.00 184 415 2.050 10000.000 0.000 1.329
95 285.00 1500.00 168 397 2.050 10000.000 0.000 1.329
96 288.00 1500.00 182 434 2.050 10000.000 0.000 1.329
97 291.00 1500.00 175 399 2.050 10000.000 0.000 1.329
98 294.00 1500.00 189 439 2.050 10000.000 0.000 1.329
99 297.00 1500.00 201 414 2.050 10000.000 0.000 1.329
100 300.00 1500.00 162 424 2.050 10000.000 0.000 1.329
101 303.00 1500.00 192 411 2.050 10000.000 0.000 1.329
102 306.00 1500.00 194 370 2.050 10000.000 0.000 1.329
103 309.00 1500.00 179 398 2.050 10000.000 0.000 1.329
104 312.00 1500.00 192 427 2.050 10000.000 0.000 1.329
105 315.00 1500.00 161 413 2.050 10000.000 0.000 1.329
106 318.00 1500.00 164 412 2.050 10000.000 0.000 1.329
107 321.00 1500.00 192 392 2.050 10000.000 0.000 1.329
108 324.00 1500.00 166 417 2.050 10000.000 0.000 1.329
109 327.00 1500.00 179 395 2.050 10000.000 0.000 1.329
110 330.00 1500.00 179 405 2.050 10000.000 0.000 1.329
111 333.00 1500.00 177 393 2.050 10000.000 0.000 1.329
112 336.00 1500.00 173 416 2.050 10000.000 0.000 1.329
113 339.00 1500.00 189 382 2.050 10000.000 0.000 1.329
114 342.00 1500.00 169 416 2.050 10000.000 0.000 1.329
115 345.00 1500.00 206 392 2.050 10000.000 0.000 1.329
116 348.00 1500.00 185 403 2.050 10000.000 0.000 1.329
117 351.00 1500.00 172 387 2.050 10000.000 0.000 1.329
118 354.00 1500.00 163 466 2.050 10000.000 0.000 1.329
119 357.00 1500.00 181 412 2.050 10000.000 0.000 1.329
120 360.00 1500.00 173 408 2.050 10000.000 0.000 1.329
121 363.00 1500.00 172 415 2.050 10000.000 0.000 1.329
122 366.00 1500.00 182 391 2.050 10000.000 0.000 1.329
123 369.00 1500.00 192 392 2.050 10000.000 0.000 1.329
124 372.00 1500.00 204 411 2.050 10000.000 0.000 1.329
125 375.00 1500.00 186 413 2.050 10000.000 0.000 1.329
126 378.00 1500.00 170 435 2.050 10000.000 0.000 1.329
127 381.00 1500.00 190 408 2.050 10000.000 0.000 1.329
128 384.00 1500.00 174 418 2.050 10000.000 0.000 1.329
129 387.00 1500.00 170 407 2.050 10000.000 0.000 1.329
130 390.00 1500.00 195 396 2.050 10000.000 0.000 1.329
131 393.00 1500.00 193 417 2.050 10000.000 0.000 1.329
132 396.00 1500.00 166 430 2.050 10000.000 0.000 1.329
133 399.00 1500.00 193 399 2.050 10000.000 0.000 1.329
134 402.00 1500.00 190 436 2.050 10000.000 0.000 1.329
