# BinNR microsec tot-time (s)  O-Beam AUX Ampl(V) f(Hz) phase(deg) chi(pos)
0 0.00 1500.07 75 267 0.510 10000.000 0.000 -1.165
1 3.00 1500.07 141 506 0.510 10000.000 0.000 -1.165
2 6.00 1500.07 157 540 0.510 10000.000 0.000 -1.165
3 9.00 1500.07 146 499 0.510 10000.000 0.000 -1.165
4 12.00 1500.07 153 563 0.510 10000.000 0.000 -1.165
5 15.00 1500.07 169 549 0.510 10000.000 0.000 -1.165
6 18.00 1500.07 177 605 0.510 10000.000 0.000 -1.165
7 21.00 1500.07 169 618 0.510 10000.000 0.000 -1.165
8 24.00 1500.07 175 626 0.510 10000.000 0.000 -1.165
9 27.00 1500.07 170 655 0.510 10000.000 0.000 -1.165
10 30.00 1500.07 168 655 0.510 10000.000 0.000 -1.165
11 33.00 1500.07 193 723 0.510 10000.000 0.000 -1.165
12 36.00 1500.07 192 678 0.510 10000.000 0.000 -1.165
13 39.00 1500.07 204 673 0.510 10000.000 0.000 -1.165
14 42.00 1500.07 187 669 0.510 10000.000 0.000 -1.165
15 45.00 1500.07 179 650 0.510 10000.000 0.000 -1.165
16 48.00 1500.07 190 640 0.510 10000.000 0.000 -1.165
17 51.00 1500.07 222 655 0.510 10000.000 0.000 -1.165
18 54.00 1500.07 176 690 0.510 10000.000 0.000 -1.165
19 57.00 1500.07 192 689 0.510 10000.000 0.000 -1.165
20 60.00 1500.07 196 645 0.510 10000.000 0.000 -1.165
21 63.00 1500.07 194 592 0.510 10000.000 0.000 -1.165
22 66.00 1500.07 178 612 0.510 10000.000 0.000 -1.165
23 69.00 1500.07 153 588 0.510 10000.000 0.000 -1.165
24 72.00 1500.07 163 598 0.510 10000.000 0.000 -1.165
25 75.00 1500.07 160 499 0.510 10000.000 0.000 -1.165
26 78.00 1500.07 173 570 0.510 10000.000 0.000 -1.165
27 81.00 1500.07 145 515 0.510 10000.000 0.000 -1.165
28 84.00 1500.07 175 517 0.510 10000.000 0.000 -1.165
29 87.00 1500.07 130 492 0.510 10000.000 0.000 -1.165
30 90.00 1500.07 167 491 0.510 10000.000 0.000 -1.165
31 93.00 1500.07 142 484 0.510 10000.000 0.000 -1.165
32 96.00 1500.07 160 494 0.510 10000.000 0.000 -1.165
33 99.00 1500.07 148 504 0.510 10000.000 0.000 -1.165
34 102.00 1500.07 168 540 0.510 10000.000 0.000 -1.165
35 105.00 1500.07 158 474 0.510 10000.000 0.000 -1.165
36 108.00 1500.07 176 457 0.510 10000.000 0.000 -1.165
37 111.00 1500.07 145 518 0.510 10000.000 0.000 -1.165
38 114.00 1500.07 150 573 0.510 10000.000 0.000 -1.165
39 117.00 1500.07 180 565 0.510 10000.000 0.000 -1.165
40 120.00 1500.07 180 534 0.510 10000.000 0.000 -1.165
41 123.00 1500.07 170 624 0.510 10000.000 0.000 -1.165
42 126.00 1500.07 152 610 0.510 10000.000 0.000 -1.165
43 129.00 1500.07 183 637 0.510 10000.000 0.000 -1.165
44 132.00 1500.07 197 635 0.510 10000.000 0.000 -1.165
45 135.00 1500.07 213 671 0.510 10000.000 0.000 -1.165
46 138.00 1500.07 156 715 0.510 10000.000 0.000 -1.165
47 141.00 1500.07 194 681 0.510 10000.000 0.000 -1.165
48 144.00 1500.07 201 694 0.510 10000.000 0.000 -1.165
49 147.00 1500.07 207 706 0.510 10000.000 0.000 -1.165
50 150.00 1500.07 177 693 0.510 10000.000 0.000 -1.165
51 153.00 1500.07 176 640 0.510 10000.000 0.000 -1.165
52 156.00 1500.07 190 720 0.510 10000.000 0.000 -1.165
53 159.00 1500.07 187 618 0.510 10000.000 0.000 -1.165
54 162.00 1500.07 188 635 0.510 10000.000 0.000 -1.165
55 165.00 1500.07 160 603 0.510 10000.000 0.000 -1.165
56 168.00 1500.07 196 633 0.510 10000.000 0.000 -1.165
57 171.00 1500.07 160 605 0.510 10000.000 0.000 -1.165
58 174.00 1500.07 146 552 0.510 10000.000 0.000 -1.165
59 177.00 1500.07 146 543 0.510 10000.000 0.000 -1.165
60 180.00 1500.07 133 500 0.510 10000.000 0.000 -1.165
61 183.00 1500.07 158 488 0.510 10000.000 0.000 -1.165
62 186.00 1500.07 169 497 0.510 10000.000 0.000 -1.165
63 189.00 1500.07 136 474 0.510 10000.000 0.000 -1.165
64 192.00 1500.07 176 486 0.510 10000.000 0.000 -1.165
65 195.00 1500.07 161 465 0.510 10000.000 0.000 -1.165
66 198.00 1500.07 138 488 0.510 10000.000 0.000 -1.165
67 201.00 1500.07 141 517 0.510 10000.000 0.000 -1.165
68 204.00 1500.07 149 519 0.510 10000.000 0.000 -1.165
69 207.00 1500.07 190 491 0.510 10000.000 0.000 -1.165
70 210.00 1500.07 131 585 0.510 10000.000 0.000 -1.165
71 213.00 1500.07 154 527 0.510 10000.000 0.000 -1.165
72 216.00 1500.07 185 556 0.510 10000.000 0.000 -1.165
73 219.00 1500.07 197 596 0.510 10000.000 0.000 -1.165
74 222.00 1500.07 170 590 0.510 10000.000 0.000 -1.165
75 225.00 1500.07 191 625 0.510 10000.000 0.000 -1.165
76 228.00 1500.07 173 608 0.510 10000.000 0.000 -1.165
77 231.00 1500.07 178 647 0.510 10000.000 0.000 -1.165
78 234.00 1500.07 185 660 0.510 10000.000 0.000 -1.165
79 237.00 1500.07 176 687 0.510 10000.000 0.000 -1.165
80 240.00 1500.07 189 682 0.510 10000.000 0.000 -1.165
81 243.00 1500.07 207 648 0.510 10000.000 0.000 -1.165
82 246.00 1500.07 210 729 0.510 10000.000 0.000 -1.165
83 249.00 1500.07 198 659 0.510 10000.000 0.000 -1.165
84 252.00 1500.07 194 681 0.510 10000.000 0.000 -1.165
85 255.00 1500.07 188 686 0.510 10000.000 0.000 -1.165
86 258.00 1500.07 165 659 0.510 10000.000 0.000 -1.165
87 261.00 1500.07 176 643 0.510 10000.000 0.000 -1.165
88 264.00 1500.07 177 664 0.510 10000.000 0.000 -1.165
89 267.00 1500.07 182 604 0.510 10000.000 0.000 -1.165
90 270.00 1500.07 138 539 0.510 10000.000 0.000 -1.165
91 273.00 1500.07 165 586 0.510 10000.000 0.000 -1.165
92 276.00 1500.07 174 532 0.510 10000.000 0.000 -1.165
93 279.00 1500.07 155 551 0.510 10000.000 0.000 -1.165
94 282.00 1500.07 164 500 0.510 10000.000 0.000 -1.165
95 285.00 1500.07 165 539 0.510 10000.000 0.000 -1.165
96 288.00 1500.07 160 482 0.510 10000.000 0.000 -1.165
97 291.00 1500.07 164 463 0.510 10000.000 0.000 -1.165
98 294.00 1500.07 163 494 0.510 10000.000 0.000 -1.165
99 297.00 1500.07 130 486 0.510 10000.000 0.000 -1.165
100 300.00 1500.07 156 531 0.510 10000.000 0.000 -1.165
101 303.00 1500.07 164 481 0.510 10000.000 0.000 -1.165
102 306.00 1500.07 162 519 0.510 10000.000 0.000 -1.165
103 309.00 1500.07 188 496 0.510 10000.000 0.000 -1.165
104 312.00 1500.07 175 537 0.510 10000.000 0.000 -1.165
105 315.00 1500.07 181 579 0.510 10000.000 0.000 -1.165
106 318.00 1500.07 160 579 0.510 10000.000 0.000 -1.165
107 321.00 1500.07 160 555 0.510 10000.000 0.000 -1.165
108 324.00 1500.07 183 580 0.510 10000.000 0.000 -1.165
109 327.00 1500.07 189 623 0.510 10000.000 0.000 -1.165
110 330.00 1500.07 195 677 0.510 10000.000 0.000 -1.165
111 333.00 1500.07 199 635 0.510 10000.000 0.000 -1.165
112 336.00 1500.07 187 700 0.510 10000.000 0.000 -1.165
113 339.00 1500.07 202 623 0.510 10000.000 0.000 -1.165
114 342.00 1500.07 218 648 0.510 10000.000 0.000 -1.165
115 345.00 1500.07 194 691 0.510 10000.000 0.000 -1.165
116 348.00 1500.07 177 708 0.510 10000.000 0.000 -1.165
117 351.00 1500.07 192 632 0.510 10000.000 0.000 -1.165
118 354.00 1500.07 201 734 0.510 10000.000 0.000 -1.165
119 357.00 1500.07 181 667 0.510 10000.000 0.000 -1.165
120 360.00 1500.07 189 639 0.510 10000.000 0.000 -1.165
121 363.00 1500.07 183 596 0.510 10000.000 0.000 -1.165
122 366.00 1500.07 180 628 0.510 10000.000 0.000 -1.165
123 369.00 1500.07 150 575 0.510 10000.000 0.000 -1.165
124 372.00 1500.07 171 620 0.510 10000.000 0.000 -1.165
125 375.00 1500.07 174 581 0.510 10000.000 0.000 -1.165
126 378.00 1500.07 163 558 0.510 10000.000 0.000 -1.165
127 381.00 1500.07 155 507 0.510 10000.000 0.000 -1.165
128 384.00 1500.07 157 509 0.510 10000.000 0.000 -1.165
129 387.00 1500.07 168 481 0.510 10000.000 0.000 -1.165
130 390.00 1500.07 155 494 0.510 10000.000 0.000 -1.165
131 393.00 1500.07 123 485 0.510 10000.000 0.000 -1.165
132 396.00 1500.07 152 480 0.510 10000.000 0.000 -1.165
133 399.00 1500.07 151 460 0.510 10000.000 0.000 -1.165
134 402.00 1500.07 144 499 0.510 10000.000 0.000 -1.165
