# BinNR microsec tot-time (s)  O-Beam AUX Ampl(V) f(Hz) phase(deg) chi(pos)
0 0.00 1500.02 121 446 0.510 10000.000 0.000 1.165
1 3.00 1500.02 227 767 0.510 10000.000 0.000 1.165
2 6.00 1500.02 227 794 0.510 10000.000 0.000 1.165
3 9.00 1500.02 250 821 0.510 10000.000 0.000 1.165
4 12.00 1500.02 267 850 0.510 10000.000 0.000 1.165
5 15.00 1500.02 247 884 0.510 10000.000 0.000 1.165
6 18.00 1500.02 237 900 0.510 10000.000 0.000 1.165
7 21.00 1500.02 221 903 0.510 10000.000 0.000 1.165
8 24.00 1500.02 261 942 0.510 10000.000 0.000 1.165
9 27.00 1500.02 235 906 0.510 10000.000 0.000 1.165
10 30.00 1500.02 251 938 0.510 10000.000 0.000 1.165
11 33.00 1500.02 251 915 0.510 10000.000 0.000 1.165
12 36.00 1500.02 244 931 0.510 10000.000 0.000 1.165
13 39.00 1500.02 265 931 0.510 10000.000 0.000 1.165
14 42.00 1500.02 260 942 0.510 10000.000 0.000 1.165
15 45.00 1500.02 275 923 0.510 10000.000 0.000 1.165
16 48.00 1500.02 243 900 0.510 10000.000 0.000 1.165
17 51.00 1500.02 271 917 0.510 10000.000 0.000 1.165
18 54.00 1500.02 257 889 0.510 10000.000 0.000 1.165
19 57.00 1500.02 260 952 0.510 10000.000 0.000 1.165
20 60.00 1500.02 239 850 0.510 10000.000 0.000 1.165
21 63.00 1500.02 245 875 0.510 10000.000 0.000 1.165
22 66.00 1500.02 240 887 0.510 10000.000 0.000 1.165
23 69.00 1500.02 223 830 0.510 10000.000 0.000 1.165
24 72.00 1500.02 254 830 0.510 10000.000 0.000 1.165
25 75.00 1500.02 225 869 0.510 10000.000 0.000 1.165
26 78.00 1500.02 268 778 0.510 10000.000 0.000 1.165
27 81.00 1500.02 219 785 0.510 10000.000 0.000 1.165
28 84.00 1500.02 228 820 0.510 10000.000 0.000 1.165
29 87.00 1500.02 218 759 0.510 10000.000 0.000 1.165
30 90.00 1500.02 229 784 0.510 10000.000 0.000 1.165
31 93.00 1500.02 207 723 0.510 10000.000 0.000 1.165
32 96.00 1500.02 217 782 0.510 10000.000 0.000 1.165
33 99.00 1500.02 231 741 0.510 10000.000 0.000 1.165
34 102.00 1500.02 194 783 0.510 10000.000 0.000 1.165
35 105.00 1500.02 226 778 0.510 10000.000 0.000 1.165
36 108.00 1500.02 238 854 0.510 10000.000 0.000 1.165
37 111.00 1500.02 203 804 0.510 10000.000 0.000 1.165
38 114.00 1500.02 207 866 0.510 10000.000 0.000 1.165
39 117.00 1500.02 256 857 0.510 10000.000 0.000 1.165
40 120.00 1500.02 265 818 0.510 10000.000 0.000 1.165
41 123.00 1500.02 253 836 0.510 10000.000 0.000 1.165
42 126.00 1500.02 277 866 0.510 10000.000 0.000 1.165
43 129.00 1500.02 287 918 0.510 10000.000 0.000 1.165
44 132.00 1500.02 258 883 0.510 10000.000 0.000 1.165
45 135.00 1500.02 282 903 0.510 10000.000 0.000 1.165
46 138.00 1500.02 273 889 0.510 10000.000 0.000 1.165
47 141.00 1500.02 259 917 0.510 10000.000 0.000 1.165
48 144.00 1500.02 268 955 0.510 10000.000 0.000 1.165
49 147.00 1500.02 277 899 0.510 10000.000 0.000 1.165
50 150.00 1500.02 260 966 0.510 10000.000 0.000 1.165
51 153.00 1500.02 256 878 0.510 10000.000 0.000 1.165
52 156.00 1500.02 223 920 0.510 10000.000 0.000 1.165
53 159.00 1500.02 273 870 0.510 10000.000 0.000 1.165
54 162.00 1500.02 267 908 0.510 10000.000 0.000 1.165
55 165.00 1500.02 241 929 0.510 10000.000 0.000 1.165
56 168.00 1500.02 246 919 0.510 10000.000 0.000 1.165
57 171.00 1500.02 242 834 0.510 10000.000 0.000 1.165
58 174.00 1500.02 220 798 0.510 10000.000 0.000 1.165
59 177.00 1500.02 213 859 0.510 10000.000 0.000 1.165
60 180.00 1500.02 208 811 0.510 10000.000 0.000 1.165
61 183.00 1500.02 234 724 0.510 10000.000 0.000 1.165
62 186.00 1500.02 245 755 0.510 10000.000 0.000 1.165
63 189.00 1500.02 193 695 0.510 10000.000 0.000 1.165
64 192.00 1500.02 252 753 0.510 10000.000 0.000 1.165
65 195.00 1500.02 233 756 0.510 10000.000 0.000 1.165
66 198.00 1500.02 208 748 0.510 10000.000 0.000 1.165
67 201.00 1500.02 234 745 0.510 10000.000 0.000 1.165
68 204.00 1500.02 220 801 0.510 10000.000 0.000 1.165
69 207.00 1500.02 231 773 0.510 10000.000 0.000 1.165
70 210.00 1500.02 261 795 0.510 10000.000 0.000 1.165
71 213.00 1500.02 205 821 0.510 10000.000 0.000 1.165
72 216.00 1500.02 249 854 0.510 10000.000 0.000 1.165
73 219.00 1500.02 240 827 0.510 10000.000 0.000 1.165
74 222.00 1500.02 245 883 0.510 10000.000 0.000 1.165
75 225.00 1500.02 261 923 0.510 10000.000 0.000 1.165
76 228.00 1500.02 251 858 0.510 10000.000 0.000 1.165
77 231.00 1500.02 275 820 0.510 10000.000 0.000 1.165
78 234.00 1500.02 263 899 0.510 10000.000 0.000 1.165
79 237.00 1500.02 252 888 0.510 10000.000 0.000 1.165
80 240.00 1500.02 294 931 0.510 10000.000 0.000 1.165
81 243.00 1500.02 262 908 0.510 10000.000 0.000 1.165
82 246.00 1500.02 273 920 0.510 10000.000 0.000 1.165
83 249.00 1500.02 261 886 0.510 10000.000 0.000 1.165
84 252.00 1500.02 279 902 0.510 10000.000 0.000 1.165
85 255.00 1500.02 263 945 0.510 10000.000 0.000 1.165
86 258.00 1500.02 272 884 0.510 10000.000 0.000 1.165
87 261.00 1500.02 239 918 0.510 10000.000 0.000 1.165
88 264.00 1500.02 233 909 0.510 10000.000 0.000 1.165
89 267.00 1500.02 248 845 0.510 10000.000 0.000 1.165
90 270.00 1500.02 288 885 0.510 10000.000 0.000 1.165
91 273.00 1500.02 206 864 0.510 10000.000 0.000 1.165
92 276.00 1500.02 249 805 0.510 10000.000 0.000 1.165
93 279.00 1500.02 221 770 0.510 10000.000 0.000 1.165
94 282.00 1500.02 210 773 0.510 10000.000 0.000 1.165
95 285.00 1500.02 205 778 0.510 10000.000 0.000 1.165
96 288.00 1500.02 197 787 0.510 10000.000 0.000 1.165
97 291.00 1500.02 252 727 0.510 10000.000 0.000 1.165
98 294.00 1500.02 212 764 0.510 10000.000 0.000 1.165
99 297.00 1500.02 236 780 0.510 10000.000 0.000 1.165
100 300.00 1500.02 229 735 0.510 10000.000 0.000 1.165
101 303.00 1500.02 184 771 0.510 10000.000 0.000 1.165
102 306.00 1500.02 198 829 0.510 10000.000 0.000 1.165
103 309.00 1500.02 221 742 0.510 10000.000 0.000 1.165
104 312.00 1500.02 244 765 0.510 10000.000 0.000 1.165
105 315.00 1500.02 243 767 0.510 10000.000 0.000 1.165
106 318.00 1500.02 265 861 0.510 10000.000 0.000 1.165
107 321.00 1500.02 238 814 0.510 10000.000 0.000 1.165
108 324.00 1500.02 252 798 0.510 10000.000 0.000 1.165
109 327.00 1500.02 244 840 0.510 10000.000 0.000 1.165
110 330.00 1500.02 280 951 0.510 10000.000 0.000 1.165
111 333.00 1500.02 263 870 0.510 10000.000 0.000 1.165
112 336.00 1500.02 281 970 0.510 10000.000 0.000 1.165
113 339.00 1500.02 269 916 0.510 10000.000 0.000 1.165
114 342.00 1500.02 255 940 0.510 10000.000 0.000 1.165
115 345.00 1500.02 262 890 0.510 10000.000 0.000 1.165
116 348.00 1500.02 258 964 0.510 10000.000 0.000 1.165
117 351.00 1500.02 288 887 0.510 10000.000 0.000 1.165
118 354.00 1500.02 247 875 0.510 10000.000 0.000 1.165
119 357.00 1500.02 253 883 0.510 10000.000 0.000 1.165
120 360.00 1500.02 277 937 0.510 10000.000 0.000 1.165
121 363.00 1500.02 255 870 0.510 10000.000 0.000 1.165
122 366.00 1500.02 257 857 0.510 10000.000 0.000 1.165
123 369.00 1500.02 221 803 0.510 10000.000 0.000 1.165
124 372.00 1500.02 259 803 0.510 10000.000 0.000 1.165
125 375.00 1500.02 263 819 0.510 10000.000 0.000 1.165
126 378.00 1500.02 207 774 0.510 10000.000 0.000 1.165
127 381.00 1500.02 229 783 0.510 10000.000 0.000 1.165
128 384.00 1500.02 228 740 0.510 10000.000 0.000 1.165
129 387.00 1500.02 234 813 0.510 10000.000 0.000 1.165
130 390.00 1500.02 227 763 0.510 10000.000 0.000 1.165
131 393.00 1500.02 233 781 0.510 10000.000 0.000 1.165
132 396.00 1500.02 238 757 0.510 10000.000 0.000 1.165
133 399.00 1500.02 231 773 0.510 10000.000 0.000 1.165
134 402.00 1500.02 217 771 0.510 10000.000 0.000 1.165
