# BinNR microsec tot-time (s)  O-Beam AUX Ampl(V) f(Hz) phase(deg) chi(pos)
0 0.00 1500.03 130 239 0.510 10000.000 0.000 0.154
1 3.00 1500.03 262 474 0.510 10000.000 0.000 0.154
2 6.00 1500.03 277 437 0.510 10000.000 0.000 0.154
3 9.00 1500.03 251 457 0.510 10000.000 0.000 0.154
4 12.00 1500.03 285 470 0.510 10000.000 0.000 0.154
5 15.00 1500.03 253 403 0.510 10000.000 0.000 0.154
6 18.00 1500.03 241 403 0.510 10000.000 0.000 0.154
7 21.00 1500.03 229 384 0.510 10000.000 0.000 0.154
8 24.00 1500.03 244 399 0.510 10000.000 0.000 0.154
9 27.00 1500.03 247 372 0.510 10000.000 0.000 0.154
10 30.00 1500.03 207 357 0.510 10000.000 0.000 0.154
11 33.00 1500.03 203 333 0.510 10000.000 0.000 0.154
12 36.00 1500.03 191 361 0.510 10000.000 0.000 0.154
13 39.00 1500.03 211 336 0.510 10000.000 0.000 0.154
14 42.00 1500.03 214 327 0.510 10000.000 0.000 0.154
15 45.00 1500.03 204 335 0.510 10000.000 0.000 0.154
16 48.00 1500.03 230 337 0.510 10000.000 0.000 0.154
17 51.00 1500.03 223 345 0.510 10000.000 0.000 0.154
18 54.00 1500.03 212 381 0.510 10000.000 0.000 0.154
19 57.00 1500.03 219 334 0.510 10000.000 0.000 0.154
20 60.00 1500.03 217 377 0.510 10000.000 0.000 0.154
21 63.00 1500.03 217 367 0.510 10000.000 0.000 0.154
22 66.00 1500.03 229 402 0.510 10000.000 0.000 0.154
23 69.00 1500.03 255 354 0.510 10000.000 0.000 0.154
24 72.00 1500.03 207 429 0.510 10000.000 0.000 0.154
25 75.00 1500.03 232 403 0.510 10000.000 0.000 0.154
26 78.00 1500.03 237 416 0.510 10000.000 0.000 0.154
27 81.00 1500.03 265 449 0.510 10000.000 0.000 0.154
28 84.00 1500.03 277 476 0.510 10000.000 0.000 0.154
29 87.00 1500.03 265 491 0.510 10000.000 0.000 0.154
30 90.00 1500.03 274 473 0.510 10000.000 0.000 0.154
31 93.00 1500.03 274 490 0.510 10000.000 0.000 0.154
32 96.00 1500.03 253 534 0.510 10000.000 0.000 0.154
33 99.00 1500.03 256 497 0.510 10000.000 0.000 0.154
34 102.00 1500.03 298 488 0.510 10000.000 0.000 0.154
35 105.00 1500.03 223 465 0.510 10000.000 0.000 0.154
36 108.00 1500.03 240 489 0.510 10000.000 0.000 0.154
37 111.00 1500.03 274 417 0.510 10000.000 0.000 0.154
38 114.00 1500.03 237 445 0.510 10000.000 0.000 0.154
39 117.00 1500.03 238 425 0.510 10000.000 0.000 0.154
40 120.00 1500.03 227 416 0.510 10000.000 0.000 0.154
41 123.00 1500.03 242 338 0.510 10000.000 0.000 0.154
42 126.00 1500.03 255 378 0.510 10000.000 0.000 0.154
43 129.00 1500.03 208 359 0.510 10000.000 0.000 0.154
44 132.00 1500.03 212 342 0.510 10000.000 0.000 0.154
45 135.00 1500.03 248 308 0.510 10000.000 0.000 0.154
46 138.00 1500.03 233 315 0.510 10000.000 0.000 0.154
47 141.00 1500.03 217 308 0.510 10000.000 0.000 0.154
48 144.00 1500.03 198 353 0.510 10000.000 0.000 0.154
49 147.00 1500.03 194 329 0.510 10000.000 0.000 0.154
50 150.00 1500.03 230 311 0.510 10000.000 0.000 0.154
51 153.00 1500.03 229 307 0.510 10000.000 0.000 0.154
52 156.00 1500.03 232 333 0.510 10000.000 0.000 0.154
53 159.00 1500.03 221 365 0.510 10000.000 0.000 0.154
54 162.00 1500.03 235 360 0.510 10000.000 0.000 0.154
55 165.00 1500.03 220 344 0.510 10000.000 0.000 0.154
56 168.00 1500.03 260 405 0.510 10000.000 0.000 0.154
57 171.00 1500.03 239 386 0.510 10000.000 0.000 0.154
58 174.00 1500.03 255 428 0.510 10000.000 0.000 0.154
59 177.00 1500.03 235 427 0.510 10000.000 0.000 0.154
60 180.00 1500.03 273 465 0.510 10000.000 0.000 0.154
61 183.00 1500.03 255 466 0.510 10000.000 0.000 0.154
62 186.00 1500.03 275 477 0.510 10000.000 0.000 0.154
63 189.00 1500.03 267 518 0.510 10000.000 0.000 0.154
64 192.00 1500.03 268 484 0.510 10000.000 0.000 0.154
65 195.00 1500.03 275 456 0.510 10000.000 0.000 0.154
66 198.00 1500.03 262 492 0.510 10000.000 0.000 0.154
67 201.00 1500.03 290 486 0.510 10000.000 0.000 0.154
68 204.00 1500.03 268 491 0.510 10000.000 0.000 0.154
69 207.00 1500.03 286 480 0.510 10000.000 0.000 0.154
70 210.00 1500.03 277 472 0.510 10000.000 0.000 0.154
71 213.00 1500.03 247 474 0.510 10000.000 0.000 0.154
72 216.00 1500.03 260 403 0.510 10000.000 0.000 0.154
73 219.00 1500.03 236 418 0.510 10000.000 0.000 0.154
74 222.00 1500.03 240 410 0.510 10000.000 0.000 0.154
75 225.00 1500.03 234 381 0.510 10000.000 0.000 0.154
76 228.00 1500.03 243 355 0.510 10000.000 0.000 0.154
77 231.00 1500.03 234 329 0.510 10000.000 0.000 0.154
78 234.00 1500.03 232 326 0.510 10000.000 0.000 0.154
79 237.00 1500.03 218 326 0.510 10000.000 0.000 0.154
80 240.00 1500.03 230 322 0.510 10000.000 0.000 0.154
81 243.00 1500.03 209 316 0.510 10000.000 0.000 0.154
82 246.00 1500.03 204 288 0.510 10000.000 0.000 0.154
83 249.00 1500.03 219 350 0.510 10000.000 0.000 0.154
84 252.00 1500.03 208 299 0.510 10000.000 0.000 0.154
85 255.00 1500.03 193 315 0.510 10000.000 0.000 0.154
86 258.00 1500.03 248 318 0.510 10000.000 0.000 0.154
87 261.00 1500.03 221 373 0.510 10000.000 0.000 0.154
88 264.00 1500.03 275 371 0.510 10000.000 0.000 0.154
89 267.00 1500.03 275 373 0.510 10000.000 0.000 0.154
90 270.00 1500.03 243 412 0.510 10000.000 0.000 0.154
91 273.00 1500.03 241 401 0.510 10000.000 0.000 0.154
92 276.00 1500.03 269 415 0.510 10000.000 0.000 0.154
93 279.00 1500.03 242 452 0.510 10000.000 0.000 0.154
94 282.00 1500.03 274 480 0.510 10000.000 0.000 0.154
95 285.00 1500.03 260 454 0.510 10000.000 0.000 0.154
96 288.00 1500.03 304 468 0.510 10000.000 0.000 0.154
97 291.00 1500.03 262 476 0.510 10000.000 0.000 0.154
98 294.00 1500.03 262 457 0.510 10000.000 0.000 0.154
99 297.00 1500.03 249 479 0.510 10000.000 0.000 0.154
100 300.00 1500.03 260 468 0.510 10000.000 0.000 0.154
101 303.00 1500.03 269 444 0.510 10000.000 0.000 0.154
102 306.00 1500.03 252 468 0.510 10000.000 0.000 0.154
103 309.00 1500.03 265 443 0.510 10000.000 0.000 0.154
104 312.00 1500.03 282 463 0.510 10000.000 0.000 0.154
105 315.00 1500.03 262 417 0.510 10000.000 0.000 0.154
106 318.00 1500.03 222 414 0.510 10000.000 0.000 0.154
107 321.00 1500.03 228 429 0.510 10000.000 0.000 0.154
108 324.00 1500.03 241 397 0.510 10000.000 0.000 0.154
109 327.00 1500.03 211 349 0.510 10000.000 0.000 0.154
110 330.00 1500.03 244 324 0.510 10000.000 0.000 0.154
111 333.00 1500.03 184 335 0.510 10000.000 0.000 0.154
112 336.00 1500.03 220 306 0.510 10000.000 0.000 0.154
113 339.00 1500.03 232 333 0.510 10000.000 0.000 0.154
114 342.00 1500.03 216 340 0.510 10000.000 0.000 0.154
115 345.00 1500.03 219 326 0.510 10000.000 0.000 0.154
116 348.00 1500.03 205 338 0.510 10000.000 0.000 0.154
117 351.00 1500.03 236 339 0.510 10000.000 0.000 0.154
118 354.00 1500.03 238 342 0.510 10000.000 0.000 0.154
119 357.00 1500.03 236 294 0.510 10000.000 0.000 0.154
120 360.00 1500.03 227 321 0.510 10000.000 0.000 0.154
121 363.00 1500.03 229 318 0.510 10000.000 0.000 0.154
122 366.00 1500.03 226 377 0.510 10000.000 0.000 0.154
123 369.00 1500.03 227 424 0.510 10000.000 0.000 0.154
124 372.00 1500.03 265 394 0.510 10000.000 0.000 0.154
125 375.00 1500.03 230 397 0.510 10000.000 0.000 0.154
126 378.00 1500.03 227 456 0.510 10000.000 0.000 0.154
127 381.00 1500.03 236 451 0.510 10000.000 0.000 0.154
128 384.00 1500.03 262 494 0.510 10000.000 0.000 0.154
129 387.00 1500.03 280 497 0.510 10000.000 0.000 0.154
130 390.00 1500.03 257 524 0.510 10000.000 0.000 0.154
131 393.00 1500.03 245 510 0.510 10000.000 0.000 0.154
132 396.00 1500.03 243 476 0.510 10000.000 0.000 0.154
133 399.00 1500.03 275 481 0.510 10000.000 0.000 0.154
134 402.00 1500.03 273 469 0.510 10000.000 0.000 0.154
