# BinNR microsec tot-time (s)  O-Beam AUX Ampl(V) f(Hz) phase(deg) chi(pos)
0 0.00 1500.03 52 134 0.510 10000.000 0.000 -1.329
1 3.00 1500.03 115 288 0.510 10000.000 0.000 -1.329
2 6.00 1500.03 107 282 0.510 10000.000 0.000 -1.329
3 9.00 1500.03 135 292 0.510 10000.000 0.000 -1.329
4 12.00 1500.03 129 295 0.510 10000.000 0.000 -1.329
5 15.00 1500.03 104 348 0.510 10000.000 0.000 -1.329
6 18.00 1500.03 104 337 0.510 10000.000 0.000 -1.329
7 21.00 1500.03 113 342 0.510 10000.000 0.000 -1.329
8 24.00 1500.03 104 369 0.510 10000.000 0.000 -1.329
9 27.00 1500.03 123 343 0.510 10000.000 0.000 -1.329
10 30.00 1500.03 135 405 0.510 10000.000 0.000 -1.329
11 33.00 1500.03 128 407 0.510 10000.000 0.000 -1.329
12 36.00 1500.03 127 381 0.510 10000.000 0.000 -1.329
13 39.00 1500.03 146 364 0.510 10000.000 0.000 -1.329
14 42.00 1500.03 132 385 0.510 10000.000 0.000 -1.329
15 45.00 1500.03 137 390 0.510 10000.000 0.000 -1.329
16 48.00 1500.03 129 393 0.510 10000.000 0.000 -1.329
17 51.00 1500.03 141 406 0.510 10000.000 0.000 -1.329
18 54.00 1500.03 146 361 0.510 10000.000 0.000 -1.329
19 57.00 1500.03 112 352 0.510 10000.000 0.000 -1.329
20 60.00 1500.03 118 368 0.510 10000.000 0.000 -1.329
21 63.00 1500.03 109 344 0.510 10000.000 0.000 -1.329
22 66.00 1500.03 126 376 0.510 10000.000 0.000 -1.329
23 69.00 1500.03 111 332 0.510 10000.000 0.000 -1.329
24 72.00 1500.03 102 342 0.510 10000.000 0.000 -1.329
25 75.00 1500.03 111 339 0.510 10000.000 0.000 -1.329
26 78.00 1500.03 110 300 0.510 10000.000 0.000 -1.329
27 81.00 1500.03 118 281 0.510 10000.000 0.000 -1.329
28 84.00 1500.03 111 298 0.510 10000.000 0.000 -1.329
29 87.00 1500.03 111 273 0.510 10000.000 0.000 -1.329
30 90.00 1500.03 103 284 0.510 10000.000 0.000 -1.329
31 93.00 1500.03 118 239 0.510 10000.000 0.000 -1.329
32 96.00 1500.03 109 265 0.510 10000.000 0.000 -1.329
33 99.00 1500.03 103 244 0.510 10000.000 0.000 -1.329
34 102.00 1500.03 90 275 0.510 10000.000 0.000 -1.329
35 105.00 1500.03 118 268 0.510 10000.000 0.000 -1.329
36 108.00 1500.03 128 312 0.510 10000.000 0.000 -1.329
37 111.00 1500.03 116 269 0.510 10000.000 0.000 -1.329
38 114.00 1500.03 105 299 0.510 10000.000 0.000 -1.329
39 117.00 1500.03 133 314 0.510 10000.000 0.000 -1.329
40 120.00 1500.03 113 336 0.510 10000.000 0.000 -1.329
41 123.00 1500.03 123 335 0.510 10000.000 0.000 -1.329
42 126.00 1500.03 115 352 0.510 10000.000 0.000 -1.329
43 129.00 1500.03 127 359 0.510 10000.000 0.000 -1.329
44 132.00 1500.03 106 377 0.510 10000.000 0.000 -1.329
45 135.00 1500.03 115 407 0.510 10000.000 0.000 -1.329
46 138.00 1500.03 119 370 0.510 10000.000 0.000 -1.329
47 141.00 1500.03 150 375 0.510 10000.000 0.000 -1.329
48 144.00 1500.03 138 391 0.510 10000.000 0.000 -1.329
49 147.00 1500.03 122 398 0.510 10000.000 0.000 -1.329
50 150.00 1500.03 129 413 0.510 10000.000 0.000 -1.329
51 153.00 1500.03 126 412 0.510 10000.000 0.000 -1.329
52 156.00 1500.03 150 366 0.510 10000.000 0.000 -1.329
53 159.00 1500.03 133 396 0.510 10000.000 0.000 -1.329
54 162.00 1500.03 100 362 0.510 10000.000 0.000 -1.329
55 165.00 1500.03 96 362 0.510 10000.000 0.000 -1.329
56 168.00 1500.03 126 339 0.510 10000.000 0.000 -1.329
57 171.00 1500.03 112 331 0.510 10000.000 0.000 -1.329
58 174.00 1500.03 126 368 0.510 10000.000 0.000 -1.329
59 177.00 1500.03 107 272 0.510 10000.000 0.000 -1.329
60 180.00 1500.03 109 273 0.510 10000.000 0.000 -1.329
61 183.00 1500.03 97 284 0.510 10000.000 0.000 -1.329
62 186.00 1500.03 112 261 0.510 10000.000 0.000 -1.329
63 189.00 1500.03 91 242 0.510 10000.000 0.000 -1.329
64 192.00 1500.03 122 271 0.510 10000.000 0.000 -1.329
65 195.00 1500.03 126 275 0.510 10000.000 0.000 -1.329
66 198.00 1500.03 117 299 0.510 10000.000 0.000 -1.329
67 201.00 1500.03 94 241 0.510 10000.000 0.000 -1.329
68 204.00 1500.03 107 247 0.510 10000.000 0.000 -1.329
69 207.00 1500.03 99 246 0.510 10000.000 0.000 -1.329
70 210.00 1500.03 110 278 0.510 10000.000 0.000 -1.329
71 213.00 1500.03 108 298 0.510 10000.000 0.000 -1.329
72 216.00 1500.03 114 313 0.510 10000.000 0.000 -1.329
73 219.00 1500.03 119 318 0.510 10000.000 0.000 -1.329
74 222.00 1500.03 116 332 0.510 10000.000 0.000 -1.329
75 225.00 1500.03 131 347 0.510 10000.000 0.000 -1.329
76 228.00 1500.03 127 402 0.510 10000.000 0.000 -1.329
77 231.00 1500.03 123 394 0.510 10000.000 0.000 -1.329
78 234.00 1500.03 137 378 0.510 10000.000 0.000 -1.329
79 237.00 1500.03 137 413 0.510 10000.000 0.000 -1.329
80 240.00 1500.03 123 383 0.510 10000.000 0.000 -1.329
81 243.00 1500.03 119 396 0.510 10000.000 0.000 -1.329
82 246.00 1500.03 132 394 0.510 10000.000 0.000 -1.329
83 249.00 1500.03 140 379 0.510 10000.000 0.000 -1.329
84 252.00 1500.03 139 374 0.510 10000.000 0.000 -1.329
85 255.00 1500.03 128 389 0.510 10000.000 0.000 -1.329
86 258.00 1500.03 123 384 0.510 10000.000 0.000 -1.329
87 261.00 1500.03 133 364 0.510 10000.000 0.000 -1.329
88 264.00 1500.03 119 357 0.510 10000.000 0.000 -1.329
89 267.00 1500.03 107 347 0.510 10000.000 0.000 -1.329
90 270.00 1500.03 106 362 0.510 10000.000 0.000 -1.329
91 273.00 1500.03 117 323 0.510 10000.000 0.000 -1.329
92 276.00 1500.03 114 300 0.510 10000.000 0.000 -1.329
93 279.00 1500.03 99 272 0.510 10000.000 0.000 -1.329
94 282.00 1500.03 99 305 0.510 10000.000 0.000 -1.329
95 285.00 1500.03 107 276 0.510 10000.000 0.000 -1.329
96 288.00 1500.03 84 286 0.510 10000.000 0.000 -1.329
97 291.00 1500.03 102 254 0.510 10000.000 0.000 -1.329
98 294.00 1500.03 126 285 0.510 10000.000 0.000 -1.329
99 297.00 1500.03 118 240 0.510 10000.000 0.000 -1.329
100 300.00 1500.03 125 280 0.510 10000.000 0.000 -1.329
101 303.00 1500.03 104 258 0.510 10000.000 0.000 -1.329
102 306.00 1500.03 97 296 0.510 10000.000 0.000 -1.329
103 309.00 1500.03 109 266 0.510 10000.000 0.000 -1.329
104 312.00 1500.03 129 273 0.510 10000.000 0.000 -1.329
105 315.00 1500.03 135 312 0.510 10000.000 0.000 -1.329
106 318.00 1500.03 136 320 0.510 10000.000 0.000 -1.329
107 321.00 1500.03 130 335 0.510 10000.000 0.000 -1.329
108 324.00 1500.03 127 361 0.510 10000.000 0.000 -1.329
109 327.00 1500.03 116 335 0.510 10000.000 0.000 -1.329
110 330.00 1500.03 131 337 0.510 10000.000 0.000 -1.329
111 333.00 1500.03 121 370 0.510 10000.000 0.000 -1.329
112 336.00 1500.03 129 411 0.510 10000.000 0.000 -1.329
113 339.00 1500.03 111 372 0.510 10000.000 0.000 -1.329
114 342.00 1500.03 122 390 0.510 10000.000 0.000 -1.329
115 345.00 1500.03 111 410 0.510 10000.000 0.000 -1.329
116 348.00 1500.03 104 434 0.510 10000.000 0.000 -1.329
117 351.00 1500.03 133 413 0.510 10000.000 0.000 -1.329
118 354.00 1500.03 127 411 0.510 10000.000 0.000 -1.329
119 357.00 1500.03 111 409 0.510 10000.000 0.000 -1.329
120 360.00 1500.03 115 377 0.510 10000.000 0.000 -1.329
121 363.00 1500.03 120 394 0.510 10000.000 0.000 -1.329
122 366.00 1500.03 146 323 0.510 10000.000 0.000 -1.329
123 369.00 1500.03 112 334 0.510 10000.000 0.000 -1.329
124 372.00 1500.03 109 330 0.510 10000.000 0.000 -1.329
125 375.00 1500.03 111 298 0.510 10000.000 0.000 -1.329
126 378.00 1500.03 118 299 0.510 10000.000 0.000 -1.329
127 381.00 1500.03 96 297 0.510 10000.000 0.000 -1.329
128 384.00 1500.03 113 282 0.510 10000.000 0.000 -1.329
129 387.00 1500.03 94 263 0.510 10000.000 0.000 -1.329
130 390.00 1500.03 111 235 0.510 10000.000 0.000 -1.329
131 393.00 1500.03 102 247 0.510 10000.000 0.000 -1.329
132 396.00 1500.03 117 251 0.510 10000.000 0.000 -1.329
133 399.00 1500.03 99 297 0.510 10000.000 0.000 -1.329
134 402.00 1500.03 120 248 0.510 10000.000 0.000 -1.329
