# BinNR microsec tot-time (s)  O-Beam AUX Ampl(V) f(Hz) phase(deg) chi(pos)
0 0.00 1500.01 248 603 0.510 10000.000 0.000 -0.330
1 3.00 1500.01 451 1228 0.510 10000.000 0.000 -0.330
2 6.00 1500.01 430 1155 0.510 10000.000 0.000 -0.330
3 9.00 1500.01 461 1199 0.510 10000.000 0.000 -0.330
4 12.00 1500.01 434 1167 0.510 10000.000 0.000 -0.330
5 15.00 1500.01 412 1138 0.510 10000.000 0.000 -0.330
6 18.00 1500.01 396 1196 0.510 10000.000 0.000 -0.330
7 21.00 1500.01 423 1116 0.510 10000.000 0.000 -0.330
8 24.00 1500.01 427 1149 0.510 10000.000 0.000 -0.330
9 27.00 1500.01 455 1085 0.510 10000.000 0.000 -0.330
10 30.00 1500.01 440 1079 0.510 10000.000 0.000 -0.330
11 33.00 1500.01 427 1059 0.510 10000.000 0.000 -0.330
12 36.00 1500.01 411 1099 0.510 10000.000 0.000 -0.330
13 39.00 1500.01 418 1088 0.510 10000.000 0.000 -0.330
14 42.00 1500.01 453 1161 0.510 10000.000 0.000 -0.330
15 45.00 1500.01 416 1098 0.510 10000.000 0.000 -0.330
16 48.00 1500.01 437 1139 0.510 10000.000 0.000 -0.330
17 51.00 1500.01 431 1052 0.510 10000.000 0.000 -0.330
18 54.00 1500.01 422 1109 0.510 10000.000 0.000 -0.330
19 57.00 1500.01 450 1110 0.510 10000.000 0.000 -0.330
20 60.00 1500.01 438 1116 0.510 10000.000 0.000 -0.330
21 63.00 1500.01 425 1129 0.510 10000.000 0.000 -0.330
22 66.00 1500.01 443 1141 0.510 10000.000 0.000 -0.330
23 69.00 1500.01 478 1094 0.510 10000.000 0.000 -0.330
24 72.00 1500.01 446 1138 0.510 10000.000 0.000 -0.330
25 75.00 1500.01 451 1249 0.510 10000.000 0.000 -0.330
26 78.00 1500.01 453 1174 0.510 10000.000 0.000 -0.330
27 81.00 1500.01 440 1127 0.510 10000.000 0.000 -0.330
28 84.00 1500.01 485 1184 0.510 10000.000 0.000 -0.330
29 87.00 1500.01 439 1207 0.510 10000.000 0.000 -0.330
30 90.00 1500.01 414 1199 0.510 10000.000 0.000 -0.330
31 93.00 1500.01 449 1208 0.510 10000.000 0.000 -0.330
32 96.00 1500.01 478 1232 0.510 10000.000 0.000 -0.330
33 99.00 1500.01 414 1149 0.510 10000.000 0.000 -0.330
34 102.00 1500.01 432 1154 0.510 10000.000 0.000 -0.330
35 105.00 1500.01 463 1180 0.510 10000.000 0.000 -0.330
36 108.00 1500.01 449 1227 0.510 10000.000 0.000 -0.330
37 111.00 1500.01 463 1135 0.510 10000.000 0.000 -0.330
38 114.00 1500.01 435 1189 0.510 10000.000 0.000 -0.330
39 117.00 1500.01 458 1177 0.510 10000.000 0.000 -0.330
40 120.00 1500.01 454 1218 0.510 10000.000 0.000 -0.330
41 123.00 1500.01 444 1129 0.510 10000.000 0.000 -0.330
42 126.00 1500.01 490 1081 0.510 10000.000 0.000 -0.330
43 129.00 1500.01 422 1125 0.510 10000.000 0.000 -0.330
44 132.00 1500.01 437 1086 0.510 10000.000 0.000 -0.330
45 135.00 1500.01 423 1074 0.510 10000.000 0.000 -0.330
46 138.00 1500.01 433 1145 0.510 10000.000 0.000 -0.330
47 141.00 1500.01 411 1063 0.510 10000.000 0.000 -0.330
48 144.00 1500.01 425 1080 0.510 10000.000 0.000 -0.330
49 147.00 1500.01 420 1121 0.510 10000.000 0.000 -0.330
50 150.00 1500.01 438 1141 0.510 10000.000 0.000 -0.330
51 153.00 1500.01 390 1053 0.510 10000.000 0.000 -0.330
52 156.00 1500.01 423 1139 0.510 10000.000 0.000 -0.330
53 159.00 1500.01 450 1043 0.510 10000.000 0.000 -0.330
54 162.00 1500.01 403 1121 0.510 10000.000 0.000 -0.330
55 165.00 1500.01 436 1128 0.510 10000.000 0.000 -0.330
56 168.00 1500.01 453 1162 0.510 10000.000 0.000 -0.330
57 171.00 1500.01 414 1165 0.510 10000.000 0.000 -0.330
58 174.00 1500.01 441 1201 0.510 10000.000 0.000 -0.330
59 177.00 1500.01 460 1128 0.510 10000.000 0.000 -0.330
60 180.00 1500.01 433 1176 0.510 10000.000 0.000 -0.330
61 183.00 1500.01 408 1225 0.510 10000.000 0.000 -0.330
62 186.00 1500.01 447 1179 0.510 10000.000 0.000 -0.330
63 189.00 1500.01 451 1159 0.510 10000.000 0.000 -0.330
64 192.00 1500.01 478 1228 0.510 10000.000 0.000 -0.330
65 195.00 1500.01 433 1169 0.510 10000.000 0.000 -0.330
66 198.00 1500.01 454 1150 0.510 10000.000 0.000 -0.330
67 201.00 1500.01 425 1168 0.510 10000.000 0.000 -0.330
68 204.00 1500.01 436 1153 0.510 10000.000 0.000 -0.330
69 207.00 1500.01 426 1251 0.510 10000.000 0.000 -0.330
70 210.00 1500.01 460 1210 0.510 10000.000 0.000 -0.330
71 213.00 1500.01 465 1121 0.510 10000.000 0.000 -0.330
72 216.00 1500.01 451 1165 0.510 10000.000 0.000 -0.330
73 219.00 1500.01 412 1179 0.510 10000.000 0.000 -0.330
74 222.00 1500.01 405 1220 0.510 10000.000 0.000 -0.330
75 225.00 1500.01 448 1154 0.510 10000.000 0.000 -0.330
76 228.00 1500.01 414 1134 0.510 10000.000 0.000 -0.330
77 231.00 1500.01 443 1092 0.510 10000.000 0.000 -0.330
78 234.00 1500.01 420 1099 0.510 10000.000 0.000 -0.330
79 237.00 1500.01 429 1066 0.510 10000.000 0.000 -0.330
80 240.00 1500.01 444 1156 0.510 10000.000 0.000 -0.330
81 243.00 1500.01 453 1063 0.510 10000.000 0.000 -0.330
82 246.00 1500.01 462 1114 0.510 10000.000 0.000 -0.330
83 249.00 1500.01 415 1026 0.510 10000.000 0.000 -0.330
84 252.00 1500.01 385 1097 0.510 10000.000 0.000 -0.330
85 255.00 1500.01 419 1107 0.510 10000.000 0.000 -0.330
86 258.00 1500.01 453 1080 0.510 10000.000 0.000 -0.330
87 261.00 1500.01 447 1111 0.510 10000.000 0.000 -0.330
88 264.00 1500.01 469 1152 0.510 10000.000 0.000 -0.330
89 267.00 1500.01 457 1068 0.510 10000.000 0.000 -0.330
90 270.00 1500.01 449 1193 0.510 10000.000 0.000 -0.330
91 273.00 1500.01 431 1106 0.510 10000.000 0.000 -0.330
92 276.00 1500.01 432 1176 0.510 10000.000 0.000 -0.330
93 279.00 1500.01 428 1133 0.510 10000.000 0.000 -0.330
94 282.00 1500.01 398 1231 0.510 10000.000 0.000 -0.330
95 285.00 1500.01 414 1130 0.510 10000.000 0.000 -0.330
96 288.00 1500.01 457 1154 0.510 10000.000 0.000 -0.330
97 291.00 1500.01 439 1205 0.510 10000.000 0.000 -0.330
98 294.00 1500.01 483 1175 0.510 10000.000 0.000 -0.330
99 297.00 1500.01 471 1282 0.510 10000.000 0.000 -0.330
100 300.00 1500.01 433 1220 0.510 10000.000 0.000 -0.330
101 303.00 1500.01 469 1192 0.510 10000.000 0.000 -0.330
102 306.00 1500.01 463 1262 0.510 10000.000 0.000 -0.330
103 309.00 1500.01 423 1185 0.510 10000.000 0.000 -0.330
104 312.00 1500.01 457 1094 0.510 10000.000 0.000 -0.330
105 315.00 1500.01 451 1170 0.510 10000.000 0.000 -0.330
106 318.00 1500.01 427 1143 0.510 10000.000 0.000 -0.330
107 321.00 1500.01 435 1112 0.510 10000.000 0.000 -0.330
108 324.00 1500.01 439 1145 0.510 10000.000 0.000 -0.330
109 327.00 1500.01 407 1094 0.510 10000.000 0.000 -0.330
110 330.00 1500.01 436 1127 0.510 10000.000 0.000 -0.330
111 333.00 1500.01 425 1045 0.510 10000.000 0.000 -0.330
112 336.00 1500.01 440 1042 0.510 10000.000 0.000 -0.330
113 339.00 1500.01 444 1050 0.510 10000.000 0.000 -0.330
114 342.00 1500.01 448 1086 0.510 10000.000 0.000 -0.330
115 345.00 1500.01 472 1061 0.510 10000.000 0.000 -0.330
116 348.00 1500.01 446 1123 0.510 10000.000 0.000 -0.330
117 351.00 1500.01 428 1059 0.510 10000.000 0.000 -0.330
118 354.00 1500.01 430 1073 0.510 10000.000 0.000 -0.330
119 357.00 1500.01 450 1068 0.510 10000.000 0.000 -0.330
120 360.00 1500.01 471 1130 0.510 10000.000 0.000 -0.330
121 363.00 1500.01 433 1090 0.510 10000.000 0.000 -0.330
122 366.00 1500.01 418 1166 0.510 10000.000 0.000 -0.330
123 369.00 1500.01 472 1144 0.510 10000.000 0.000 -0.330
124 372.00 1500.01 452 1133 0.510 10000.000 0.000 -0.330
125 375.00 1500.01 430 1221 0.510 10000.000 0.000 -0.330
126 378.00 1500.01 449 1147 0.510 10000.000 0.000 -0.330
127 381.00 1500.01 451 1129 0.510 10000.000 0.000 -0.330
128 384.00 1500.01 446 1175 0.510 10000.000 0.000 -0.330
129 387.00 1500.01 433 1187 0.510 10000.000 0.000 -0.330
130 390.00 1500.01 450 1196 0.510 10000.000 0.000 -0.330
131 393.00 1500.01 480 1224 0.510 10000.000 0.000 -0.330
132 396.00 1500.01 431 1215 0.510 10000.000 0.000 -0.330
133 399.00 1500.01 452 1144 0.510 10000.000 0.000 -0.330
134 402.00 1500.01 443 1200 0.510 10000.000 0.000 -0.330
