# BinNR microsec tot-time (s)  O-Beam AUX Ampl(V) f(Hz) phase(deg) chi(pos)
0 0.00 1500.00 50 56 0.510 10000.000 0.000 0.505
1 3.00 1500.00 103 124 0.510 10000.000 0.000 0.505
2 6.00 1500.00 111 120 0.510 10000.000 0.000 0.505
3 9.00 1500.00 127 106 0.510 10000.000 0.000 0.505
4 12.00 1500.00 107 113 0.510 10000.000 0.000 0.505
5 15.00 1500.00 103 104 0.510 10000.000 0.000 0.505
6 18.00 1500.00 102 124 0.510 10000.000 0.000 0.505
7 21.00 1500.00 107 105 0.510 10000.000 0.000 0.505
8 24.00 1500.00 120 126 0.510 10000.000 0.000 0.505
9 27.00 1500.00 87 116 0.510 10000.000 0.000 0.505
10 30.00 1500.00 117 136 0.510 10000.000 0.000 0.505
11 33.00 1500.00 97 116 0.510 10000.000 0.000 0.505
12 36.00 1500.00 103 139 0.510 10000.000 0.000 0.505
13 39.00 1500.00 99 123 0.510 10000.000 0.000 0.505
14 42.00 1500.00 85 111 0.510 10000.000 0.000 0.505
15 45.00 1500.00 86 104 0.510 10000.000 0.000 0.505
16 48.00 1500.00 101 115 0.510 10000.000 0.000 0.505
17 51.00 1500.00 112 138 0.510 10000.000 0.000 0.505
18 54.00 1500.00 89 105 0.510 10000.000 0.000 0.505
19 57.00 1500.00 103 104 0.510 10000.000 0.000 0.505
20 60.00 1500.00 89 122 0.510 10000.000 0.000 0.505
21 63.00 1500.00 98 123 0.510 10000.000 0.000 0.505
22 66.00 1500.00 97 103 0.510 10000.000 0.000 0.505
23 69.00 1500.00 135 108 0.510 10000.000 0.000 0.505
24 72.00 1500.00 102 133 0.510 10000.000 0.000 0.505
25 75.00 1500.00 97 105 0.510 10000.000 0.000 0.505
26 78.00 1500.00 110 118 0.510 10000.000 0.000 0.505
27 81.00 1500.00 112 102 0.510 10000.000 0.000 0.505
28 84.00 1500.00 95 129 0.510 10000.000 0.000 0.505
29 87.00 1500.00 120 127 0.510 10000.000 0.000 0.505
30 90.00 1500.00 109 135 0.510 10000.000 0.000 0.505
31 93.00 1500.00 110 125 0.510 10000.000 0.000 0.505
32 96.00 1500.00 111 133 0.510 10000.000 0.000 0.505
33 99.00 1500.00 114 134 0.510 10000.000 0.000 0.505
34 102.00 1500.00 134 159 0.510 10000.000 0.000 0.505
35 105.00 1500.00 126 96 0.510 10000.000 0.000 0.505
36 108.00 1500.00 107 114 0.510 10000.000 0.000 0.505
37 111.00 1500.00 94 124 0.510 10000.000 0.000 0.505
38 114.00 1500.00 111 130 0.510 10000.000 0.000 0.505
39 117.00 1500.00 104 126 0.510 10000.000 0.000 0.505
40 120.00 1500.00 93 143 0.510 10000.000 0.000 0.505
41 123.00 1500.00 105 107 0.510 10000.000 0.000 0.505
42 126.00 1500.00 94 122 0.510 10000.000 0.000 0.505
43 129.00 1500.00 103 124 0.510 10000.000 0.000 0.505
44 132.00 1500.00 101 121 0.510 10000.000 0.000 0.505
45 135.00 1500.00 89 100 0.510 10000.000 0.000 0.505
46 138.00 1500.00 90 133 0.510 10000.000 0.000 0.505
47 141.00 1500.00 104 127 0.510 10000.000 0.000 0.505
48 144.00 1500.00 97 113 0.510 10000.000 0.000 0.505
49 147.00 1500.00 87 119 0.510 10000.000 0.000 0.505
50 150.00 1500.00 81 109 0.510 10000.000 0.000 0.505
51 153.00 1500.00 107 120 0.510 10000.000 0.000 0.505
52 156.00 1500.00 105 116 0.510 10000.000 0.000 0.505
53 159.00 1500.00 105 113 0.510 10000.000 0.000 0.505
54 162.00 1500.00 96 127 0.510 10000.000 0.000 0.505
55 165.00 1500.00 108 117 0.510 10000.000 0.000 0.505
56 168.00 1500.00 95 113 0.510 10000.000 0.000 0.505
57 171.00 1500.00 108 117 0.510 10000.000 0.000 0.505
58 174.00 1500.00 111 119 0.510 10000.000 0.000 0.505
59 177.00 1500.00 114 106 0.510 10000.000 0.000 0.505
60 180.00 1500.00 118 128 0.510 10000.000 0.000 0.505
61 183.00 1500.00 132 110 0.510 10000.000 0.000 0.505
62 186.00 1500.00 135 151 0.510 10000.000 0.000 0.505
63 189.00 1500.00 122 118 0.510 10000.000 0.000 0.505
64 192.00 1500.00 125 135 0.510 10000.000 0.000 0.505
65 195.00 1500.00 116 121 0.510 10000.000 0.000 0.505
66 198.00 1500.00 124 139 0.510 10000.000 0.000 0.505
67 201.00 1500.00 130 126 0.510 10000.000 0.000 0.505
68 204.00 1500.00 129 130 0.510 10000.000 0.000 0.505
69 207.00 1500.00 125 110 0.510 10000.000 0.000 0.505
70 210.00 1500.00 125 111 0.510 10000.000 0.000 0.505
71 213.00 1500.00 108 113 0.510 10000.000 0.000 0.505
72 216.00 1500.00 113 118 0.510 10000.000 0.000 0.505
73 219.00 1500.00 96 116 0.510 10000.000 0.000 0.505
74 222.00 1500.00 103 133 0.510 10000.000 0.000 0.505
75 225.00 1500.00 119 118 0.510 10000.000 0.000 0.505
76 228.00 1500.00 102 123 0.510 10000.000 0.000 0.505
77 231.00 1500.00 94 105 0.510 10000.000 0.000 0.505
78 234.00 1500.00 92 126 0.510 10000.000 0.000 0.505
79 237.00 1500.00 96 129 0.510 10000.000 0.000 0.505
80 240.00 1500.00 119 134 0.510 10000.000 0.000 0.505
81 243.00 1500.00 97 125 0.510 10000.000 0.000 0.505
82 246.00 1500.00 93 117 0.510 10000.000 0.000 0.505
83 249.00 1500.00 83 129 0.510 10000.000 0.000 0.505
84 252.00 1500.00 97 117 0.510 10000.000 0.000 0.505
85 255.00 1500.00 98 108 0.510 10000.000 0.000 0.505
86 258.00 1500.00 97 117 0.510 10000.000 0.000 0.505
87 261.00 1500.00 96 113 0.510 10000.000 0.000 0.505
88 264.00 1500.00 103 121 0.510 10000.000 0.000 0.505
89 267.00 1500.00 73 110 0.510 10000.000 0.000 0.505
90 270.00 1500.00 132 112 0.510 10000.000 0.000 0.505
91 273.00 1500.00 94 105 0.510 10000.000 0.000 0.505
92 276.00 1500.00 104 105 0.510 10000.000 0.000 0.505
93 279.00 1500.00 112 130 0.510 10000.000 0.000 0.505
94 282.00 1500.00 124 123 0.510 10000.000 0.000 0.505
95 285.00 1500.00 113 121 0.510 10000.000 0.000 0.505
96 288.00 1500.00 129 151 0.510 10000.000 0.000 0.505
97 291.00 1500.00 111 121 0.510 10000.000 0.000 0.505
98 294.00 1500.00 145 114 0.510 10000.000 0.000 0.505
99 297.00 1500.00 107 136 0.510 10000.000 0.000 0.505
100 300.00 1500.00 121 113 0.510 10000.000 0.000 0.505
101 303.00 1500.00 101 135 0.510 10000.000 0.000 0.505
102 306.00 1500.00 115 142 0.510 10000.000 0.000 0.505
103 309.00 1500.00 98 123 0.510 10000.000 0.000 0.505
104 312.00 1500.00 124 133 0.510 10000.000 0.000 0.505
105 315.00 1500.00 109 115 0.510 10000.000 0.000 0.505
106 318.00 1500.00 125 110 0.510 10000.000 0.000 0.505
107 321.00 1500.00 108 103 0.510 10000.000 0.000 0.505
108 324.00 1500.00 110 120 0.510 10000.000 0.000 0.505
109 327.00 1500.00 103 120 0.510 10000.000 0.000 0.505
110 330.00 1500.00 92 121 0.510 10000.000 0.000 0.505
111 333.00 1500.00 102 108 0.510 10000.000 0.000 0.505
112 336.00 1500.00 85 116 0.510 10000.000 0.000 0.505
113 339.00 1500.00 106 131 0.510 10000.000 0.000 0.505
114 342.00 1500.00 86 114 0.510 10000.000 0.000 0.505
115 345.00 1500.00 99 124 0.510 10000.000 0.000 0.505
116 348.00 1500.00 91 140 0.510 10000.000 0.000 0.505
117 351.00 1500.00 89 129 0.510 10000.000 0.000 0.505
118 354.00 1500.00 106 141 0.510 10000.000 0.000 0.505
119 357.00 1500.00 106 109 0.510 10000.000 0.000 0.505
120 360.00 1500.00 92 111 0.510 10000.000 0.000 0.505
121 363.00 1500.00 81 122 0.510 10000.000 0.000 0.505
122 366.00 1500.00 116 110 0.510 10000.000 0.000 0.505
123 369.00 1500.00 112 129 0.510 10000.000 0.000 0.505
124 372.00 1500.00 121 106 0.510 10000.000 0.000 0.505
125 375.00 1500.00 106 116 0.510 10000.000 0.000 0.505
126 378.00 1500.00 125 126 0.510 10000.000 0.000 0.505
127 381.00 1500.00 97 126 0.510 10000.000 0.000 0.505
128 384.00 1500.00 116 137 0.510 10000.000 0.000 0.505
129 387.00 1500.00 118 110 0.510 10000.000 0.000 0.505
130 390.00 1500.00 110 120 0.510 10000.000 0.000 0.505
131 393.00 1500.00 124 134 0.510 10000.000 0.000 0.505
132 396.00 1500.00 119 133 0.510 10000.000 0.000 0.505
133 399.00 1500.00 99 132 0.510 10000.000 0.000 0.505
134 402.00 1500.00 111 126 0.510 10000.000 0.000 0.505
