# BinNR microsec tot-time (s)  O-Beam AUX Ampl(V) f(Hz) phase(deg) chi(pos)
0 0.00 1500.02 184 504 0.510 10000.000 0.000 -0.165
1 3.00 1500.02 444 981 0.510 10000.000 0.000 -0.165
2 6.00 1500.02 379 990 0.510 10000.000 0.000 -0.165
3 9.00 1500.02 421 1021 0.510 10000.000 0.000 -0.165
4 12.00 1500.02 371 972 0.510 10000.000 0.000 -0.165
5 15.00 1500.02 395 946 0.510 10000.000 0.000 -0.165
6 18.00 1500.02 401 952 0.510 10000.000 0.000 -0.165
7 21.00 1500.02 407 847 0.510 10000.000 0.000 -0.165
8 24.00 1500.02 374 946 0.510 10000.000 0.000 -0.165
9 27.00 1500.02 379 823 0.510 10000.000 0.000 -0.165
10 30.00 1500.02 382 869 0.510 10000.000 0.000 -0.165
11 33.00 1500.02 366 863 0.510 10000.000 0.000 -0.165
12 36.00 1500.02 395 835 0.510 10000.000 0.000 -0.165
13 39.00 1500.02 338 859 0.510 10000.000 0.000 -0.165
14 42.00 1500.02 400 908 0.510 10000.000 0.000 -0.165
15 45.00 1500.02 351 811 0.510 10000.000 0.000 -0.165
16 48.00 1500.02 388 852 0.510 10000.000 0.000 -0.165
17 51.00 1500.02 403 843 0.510 10000.000 0.000 -0.165
18 54.00 1500.02 364 877 0.510 10000.000 0.000 -0.165
19 57.00 1500.02 376 853 0.510 10000.000 0.000 -0.165
20 60.00 1500.02 394 878 0.510 10000.000 0.000 -0.165
21 63.00 1500.02 452 846 0.510 10000.000 0.000 -0.165
22 66.00 1500.02 407 980 0.510 10000.000 0.000 -0.165
23 69.00 1500.02 386 931 0.510 10000.000 0.000 -0.165
24 72.00 1500.02 389 974 0.510 10000.000 0.000 -0.165
25 75.00 1500.02 405 901 0.510 10000.000 0.000 -0.165
26 78.00 1500.02 421 931 0.510 10000.000 0.000 -0.165
27 81.00 1500.02 422 926 0.510 10000.000 0.000 -0.165
28 84.00 1500.02 419 997 0.510 10000.000 0.000 -0.165
29 87.00 1500.02 407 985 0.510 10000.000 0.000 -0.165
30 90.00 1500.02 403 1001 0.510 10000.000 0.000 -0.165
31 93.00 1500.02 402 981 0.510 10000.000 0.000 -0.165
32 96.00 1500.02 414 997 0.510 10000.000 0.000 -0.165
33 99.00 1500.02 457 997 0.510 10000.000 0.000 -0.165
34 102.00 1500.02 418 951 0.510 10000.000 0.000 -0.165
35 105.00 1500.02 387 1052 0.510 10000.000 0.000 -0.165
36 108.00 1500.02 422 1043 0.510 10000.000 0.000 -0.165
37 111.00 1500.02 371 986 0.510 10000.000 0.000 -0.165
38 114.00 1500.02 405 974 0.510 10000.000 0.000 -0.165
39 117.00 1500.02 369 976 0.510 10000.000 0.000 -0.165
40 120.00 1500.02 417 961 0.510 10000.000 0.000 -0.165
41 123.00 1500.02 355 964 0.510 10000.000 0.000 -0.165
42 126.00 1500.02 388 904 0.510 10000.000 0.000 -0.165
43 129.00 1500.02 384 880 0.510 10000.000 0.000 -0.165
44 132.00 1500.02 385 901 0.510 10000.000 0.000 -0.165
45 135.00 1500.02 363 848 0.510 10000.000 0.000 -0.165
46 138.00 1500.02 351 906 0.510 10000.000 0.000 -0.165
47 141.00 1500.02 382 837 0.510 10000.000 0.000 -0.165
48 144.00 1500.02 372 808 0.510 10000.000 0.000 -0.165
49 147.00 1500.02 394 806 0.510 10000.000 0.000 -0.165
50 150.00 1500.02 325 853 0.510 10000.000 0.000 -0.165
51 153.00 1500.02 380 858 0.510 10000.000 0.000 -0.165
52 156.00 1500.02 371 863 0.510 10000.000 0.000 -0.165
53 159.00 1500.02 417 809 0.510 10000.000 0.000 -0.165
54 162.00 1500.02 402 867 0.510 10000.000 0.000 -0.165
55 165.00 1500.02 351 914 0.510 10000.000 0.000 -0.165
56 168.00 1500.02 416 886 0.510 10000.000 0.000 -0.165
57 171.00 1500.02 383 940 0.510 10000.000 0.000 -0.165
58 174.00 1500.02 415 910 0.510 10000.000 0.000 -0.165
59 177.00 1500.02 427 920 0.510 10000.000 0.000 -0.165
60 180.00 1500.02 396 990 0.510 10000.000 0.000 -0.165
61 183.00 1500.02 442 1000 0.510 10000.000 0.000 -0.165
62 186.00 1500.02 386 954 0.510 10000.000 0.000 -0.165
63 189.00 1500.02 408 995 0.510 10000.000 0.000 -0.165
64 192.00 1500.02 441 1086 0.510 10000.000 0.000 -0.165
65 195.00 1500.02 419 1019 0.510 10000.000 0.000 -0.165
66 198.00 1500.02 419 998 0.510 10000.000 0.000 -0.165
67 201.00 1500.02 422 1032 0.510 10000.000 0.000 -0.165
68 204.00 1500.02 393 1028 0.510 10000.000 0.000 -0.165
69 207.00 1500.02 416 1014 0.510 10000.000 0.000 -0.165
70 210.00 1500.02 393 1021 0.510 10000.000 0.000 -0.165
71 213.00 1500.02 421 1006 0.510 10000.000 0.000 -0.165
72 216.00 1500.02 380 953 0.510 10000.000 0.000 -0.165
73 219.00 1500.02 407 963 0.510 10000.000 0.000 -0.165
74 222.00 1500.02 424 909 0.510 10000.000 0.000 -0.165
75 225.00 1500.02 367 912 0.510 10000.000 0.000 -0.165
76 228.00 1500.02 360 891 0.510 10000.000 0.000 -0.165
77 231.00 1500.02 390 842 0.510 10000.000 0.000 -0.165
78 234.00 1500.02 371 879 0.510 10000.000 0.000 -0.165
79 237.00 1500.02 375 768 0.510 10000.000 0.000 -0.165
80 240.00 1500.02 391 806 0.510 10000.000 0.000 -0.165
81 243.00 1500.02 364 806 0.510 10000.000 0.000 -0.165
82 246.00 1500.02 424 847 0.510 10000.000 0.000 -0.165
83 249.00 1500.02 369 783 0.510 10000.000 0.000 -0.165
84 252.00 1500.02 351 864 0.510 10000.000 0.000 -0.165
85 255.00 1500.02 372 878 0.510 10000.000 0.000 -0.165
86 258.00 1500.02 401 893 0.510 10000.000 0.000 -0.165
87 261.00 1500.02 346 860 0.510 10000.000 0.000 -0.165
88 264.00 1500.02 426 869 0.510 10000.000 0.000 -0.165
89 267.00 1500.02 386 856 0.510 10000.000 0.000 -0.165
90 270.00 1500.02 398 951 0.510 10000.000 0.000 -0.165
91 273.00 1500.02 424 959 0.510 10000.000 0.000 -0.165
92 276.00 1500.02 392 954 0.510 10000.000 0.000 -0.165
93 279.00 1500.02 405 922 0.510 10000.000 0.000 -0.165
94 282.00 1500.02 384 984 0.510 10000.000 0.000 -0.165
95 285.00 1500.02 385 1006 0.510 10000.000 0.000 -0.165
96 288.00 1500.02 430 1044 0.510 10000.000 0.000 -0.165
97 291.00 1500.02 418 958 0.510 10000.000 0.000 -0.165
98 294.00 1500.02 419 1102 0.510 10000.000 0.000 -0.165
99 297.00 1500.02 409 1037 0.510 10000.000 0.000 -0.165
100 300.00 1500.02 448 983 0.510 10000.000 0.000 -0.165
101 303.00 1500.02 435 1000 0.510 10000.000 0.000 -0.165
102 306.00 1500.02 419 1033 0.510 10000.000 0.000 -0.165
103 309.00 1500.02 379 927 0.510 10000.000 0.000 -0.165
104 312.00 1500.02 405 981 0.510 10000.000 0.000 -0.165
105 315.00 1500.02 384 957 0.510 10000.000 0.000 -0.165
106 318.00 1500.02 392 956 0.510 10000.000 0.000 -0.165
107 321.00 1500.02 381 863 0.510 10000.000 0.000 -0.165
108 324.00 1500.02 375 880 0.510 10000.000 0.000 -0.165
109 327.00 1500.02 356 907 0.510 10000.000 0.000 -0.165
110 330.00 1500.02 399 821 0.510 10000.000 0.000 -0.165
111 333.00 1500.02 387 871 0.510 10000.000 0.000 -0.165
112 336.00 1500.02 399 863 0.510 10000.000 0.000 -0.165
113 339.00 1500.02 381 871 0.510 10000.000 0.000 -0.165
114 342.00 1500.02 357 856 0.510 10000.000 0.000 -0.165
115 345.00 1500.02 354 853 0.510 10000.000 0.000 -0.165
116 348.00 1500.02 389 817 0.510 10000.000 0.000 -0.165
117 351.00 1500.02 384 813 0.510 10000.000 0.000 -0.165
118 354.00 1500.02 384 883 0.510 10000.000 0.000 -0.165
119 357.00 1500.02 365 828 0.510 10000.000 0.000 -0.165
120 360.00 1500.02 347 874 0.510 10000.000 0.000 -0.165
121 363.00 1500.02 397 840 0.510 10000.000 0.000 -0.165
122 366.00 1500.02 402 928 0.510 10000.000 0.000 -0.165
123 369.00 1500.02 364 905 0.510 10000.000 0.000 -0.165
124 372.00 1500.02 356 951 0.510 10000.000 0.000 -0.165
125 375.00 1500.02 383 956 0.510 10000.000 0.000 -0.165
126 378.00 1500.02 396 987 0.510 10000.000 0.000 -0.165
127 381.00 1500.02 410 1006 0.510 10000.000 0.000 -0.165
128 384.00 1500.02 386 1022 0.510 10000.000 0.000 -0.165
129 387.00 1500.02 386 956 0.510 10000.000 0.000 -0.165
130 390.00 1500.02 464 1001 0.510 10000.000 0.000 -0.165
131 393.00 1500.02 411 993 0.510 10000.000 0.000 -0.165
132 396.00 1500.02 380 1060 0.510 10000.000 0.000 -0.165
133 399.00 1500.02 411 1009 0.510 10000.000 0.000 -0.165
134 402.00 1500.02 421 966 0.510 10000.000 0.000 -0.165
